# BinNR microsec tot-time (s)  O-Beam AUX Ampl(V) f(Hz) phase(deg) chi(pos)
0 0.00 1200.01 122 226 2.000 10000.000 0.000 -0.703
1 3.00 1200.01 219 560 2.000 10000.000 0.000 -0.703
2 6.00 1200.01 265 593 2.000 10000.000 0.000 -0.703
3 9.00 1200.01 247 664 2.000 10000.000 0.000 -0.703
4 12.00 1200.01 269 737 2.000 10000.000 0.000 -0.703
5 15.00 1200.01 240 734 2.000 10000.000 0.000 -0.703
6 18.00 1200.01 234 675 2.000 10000.000 0.000 -0.703
7 21.00 1200.01 248 670 2.000 10000.000 0.000 -0.703
8 24.00 1200.01 269 665 2.000 10000.000 0.000 -0.703
9 27.00 1200.01 220 644 2.000 10000.000 0.000 -0.703
10 30.00 1200.01 244 595 2.000 10000.000 0.000 -0.703
11 33.00 1200.01 232 524 2.000 10000.000 0.000 -0.703
12 36.00 1200.01 170 445 2.000 10000.000 0.000 -0.703
13 39.00 1200.01 188 325 2.000 10000.000 0.000 -0.703
14 42.00 1200.01 163 315 2.000 10000.000 0.000 -0.703
15 45.00 1200.01 175 266 2.000 10000.000 0.000 -0.703
16 48.00 1200.01 168 241 2.000 10000.000 0.000 -0.703
17 51.00 1200.01 148 230 2.000 10000.000 0.000 -0.703
18 54.00 1200.01 162 248 2.000 10000.000 0.000 -0.703
19 57.00 1200.01 146 251 2.000 10000.000 0.000 -0.703
20 60.00 1200.01 160 255 2.000 10000.000 0.000 -0.703
21 63.00 1200.01 168 247 2.000 10000.000 0.000 -0.703
22 66.00 1200.01 183 281 2.000 10000.000 0.000 -0.703
23 69.00 1200.01 206 230 2.000 10000.000 0.000 -0.703
24 72.00 1200.01 170 286 2.000 10000.000 0.000 -0.703
25 75.00 1200.01 190 261 2.000 10000.000 0.000 -0.703
26 78.00 1200.01 204 256 2.000 10000.000 0.000 -0.703
27 81.00 1200.01 204 236 2.000 10000.000 0.000 -0.703
28 84.00 1200.01 184 231 2.000 10000.000 0.000 -0.703
29 87.00 1200.01 185 243 2.000 10000.000 0.000 -0.703
30 90.00 1200.01 198 274 2.000 10000.000 0.000 -0.703
31 93.00 1200.01 200 353 2.000 10000.000 0.000 -0.703
32 96.00 1200.01 203 349 2.000 10000.000 0.000 -0.703
33 99.00 1200.01 209 402 2.000 10000.000 0.000 -0.703
34 102.00 1200.01 191 527 2.000 10000.000 0.000 -0.703
35 105.00 1200.01 221 600 2.000 10000.000 0.000 -0.703
36 108.00 1200.01 245 673 2.000 10000.000 0.000 -0.703
37 111.00 1200.01 228 693 2.000 10000.000 0.000 -0.703
38 114.00 1200.01 233 752 2.000 10000.000 0.000 -0.703
39 117.00 1200.01 257 692 2.000 10000.000 0.000 -0.703
40 120.00 1200.01 248 761 2.000 10000.000 0.000 -0.703
41 123.00 1200.01 266 676 2.000 10000.000 0.000 -0.703
42 126.00 1200.01 240 655 2.000 10000.000 0.000 -0.703
43 129.00 1200.01 209 635 2.000 10000.000 0.000 -0.703
44 132.00 1200.01 226 562 2.000 10000.000 0.000 -0.703
45 135.00 1200.01 215 462 2.000 10000.000 0.000 -0.703
46 138.00 1200.01 206 436 2.000 10000.000 0.000 -0.703
47 141.00 1200.01 185 363 2.000 10000.000 0.000 -0.703
48 144.00 1200.01 174 293 2.000 10000.000 0.000 -0.703
49 147.00 1200.01 171 244 2.000 10000.000 0.000 -0.703
50 150.00 1200.01 148 225 2.000 10000.000 0.000 -0.703
51 153.00 1200.01 178 225 2.000 10000.000 0.000 -0.703
52 156.00 1200.01 159 237 2.000 10000.000 0.000 -0.703
53 159.00 1200.01 162 238 2.000 10000.000 0.000 -0.703
54 162.00 1200.01 166 248 2.000 10000.000 0.000 -0.703
55 165.00 1200.01 188 276 2.000 10000.000 0.000 -0.703
56 168.00 1200.01 162 269 2.000 10000.000 0.000 -0.703
57 171.00 1200.01 185 240 2.000 10000.000 0.000 -0.703
58 174.00 1200.01 154 258 2.000 10000.000 0.000 -0.703
59 177.00 1200.01 173 226 2.000 10000.000 0.000 -0.703
60 180.00 1200.01 159 238 2.000 10000.000 0.000 -0.703
61 183.00 1200.01 168 213 2.000 10000.000 0.000 -0.703
62 186.00 1200.01 170 262 2.000 10000.000 0.000 -0.703
63 189.00 1200.01 172 255 2.000 10000.000 0.000 -0.703
64 192.00 1200.01 191 329 2.000 10000.000 0.000 -0.703
65 195.00 1200.01 182 325 2.000 10000.000 0.000 -0.703
66 198.00 1200.01 176 385 2.000 10000.000 0.000 -0.703
67 201.00 1200.01 211 477 2.000 10000.000 0.000 -0.703
68 204.00 1200.01 195 543 2.000 10000.000 0.000 -0.703
69 207.00 1200.01 238 588 2.000 10000.000 0.000 -0.703
70 210.00 1200.01 222 662 2.000 10000.000 0.000 -0.703
71 213.00 1200.01 281 690 2.000 10000.000 0.000 -0.703
72 216.00 1200.01 256 714 2.000 10000.000 0.000 -0.703
73 219.00 1200.01 260 728 2.000 10000.000 0.000 -0.703
74 222.00 1200.01 257 694 2.000 10000.000 0.000 -0.703
75 225.00 1200.01 263 645 2.000 10000.000 0.000 -0.703
76 228.00 1200.01 259 653 2.000 10000.000 0.000 -0.703
77 231.00 1200.01 227 571 2.000 10000.000 0.000 -0.703
78 234.00 1200.01 204 427 2.000 10000.000 0.000 -0.703
79 237.00 1200.01 202 456 2.000 10000.000 0.000 -0.703
80 240.00 1200.01 171 363 2.000 10000.000 0.000 -0.703
81 243.00 1200.01 192 288 2.000 10000.000 0.000 -0.703
82 246.00 1200.01 167 274 2.000 10000.000 0.000 -0.703
83 249.00 1200.01 144 258 2.000 10000.000 0.000 -0.703
84 252.00 1200.01 142 263 2.000 10000.000 0.000 -0.703
85 255.00 1200.01 161 222 2.000 10000.000 0.000 -0.703
86 258.00 1200.01 169 249 2.000 10000.000 0.000 -0.703
87 261.00 1200.01 175 249 2.000 10000.000 0.000 -0.703
88 264.00 1200.01 164 266 2.000 10000.000 0.000 -0.703
89 267.00 1200.01 188 250 2.000 10000.000 0.000 -0.703
90 270.00 1200.01 188 273 2.000 10000.000 0.000 -0.703
91 273.00 1200.01 158 268 2.000 10000.000 0.000 -0.703
92 276.00 1200.01 197 232 2.000 10000.000 0.000 -0.703
93 279.00 1200.01 171 222 2.000 10000.000 0.000 -0.703
94 282.00 1200.01 179 222 2.000 10000.000 0.000 -0.703
95 285.00 1200.01 162 218 2.000 10000.000 0.000 -0.703
96 288.00 1200.01 183 229 2.000 10000.000 0.000 -0.703
97 291.00 1200.01 188 278 2.000 10000.000 0.000 -0.703
98 294.00 1200.01 176 353 2.000 10000.000 0.000 -0.703
99 297.00 1200.01 191 390 2.000 10000.000 0.000 -0.703
100 300.00 1200.01 150 361 2.000 10000.000 0.000 -0.703
