# BinNR microsec tot-time (s)  O-Beam AUX Ampl(V) f(Hz) phase(deg) chi(pos)
0 0.00 1200.00 88 143 2.000 10000.000 0.000 -0.912
1 3.00 1200.00 203 305 2.000 10000.000 0.000 -0.912
2 6.00 1200.00 186 348 2.000 10000.000 0.000 -0.912
3 9.00 1200.00 194 426 2.000 10000.000 0.000 -0.912
4 12.00 1200.00 213 404 2.000 10000.000 0.000 -0.912
5 15.00 1200.00 192 413 2.000 10000.000 0.000 -0.912
6 18.00 1200.00 192 434 2.000 10000.000 0.000 -0.912
7 21.00 1200.00 201 411 2.000 10000.000 0.000 -0.912
8 24.00 1200.00 165 380 2.000 10000.000 0.000 -0.912
9 27.00 1200.00 180 369 2.000 10000.000 0.000 -0.912
10 30.00 1200.00 144 330 2.000 10000.000 0.000 -0.912
11 33.00 1200.00 170 277 2.000 10000.000 0.000 -0.912
12 36.00 1200.00 176 268 2.000 10000.000 0.000 -0.912
13 39.00 1200.00 164 226 2.000 10000.000 0.000 -0.912
14 42.00 1200.00 154 227 2.000 10000.000 0.000 -0.912
15 45.00 1200.00 158 236 2.000 10000.000 0.000 -0.912
16 48.00 1200.00 179 277 2.000 10000.000 0.000 -0.912
17 51.00 1200.00 167 292 2.000 10000.000 0.000 -0.912
18 54.00 1200.00 186 315 2.000 10000.000 0.000 -0.912
19 57.00 1200.00 183 365 2.000 10000.000 0.000 -0.912
20 60.00 1200.00 196 439 2.000 10000.000 0.000 -0.912
21 63.00 1200.00 218 422 2.000 10000.000 0.000 -0.912
22 66.00 1200.00 234 438 2.000 10000.000 0.000 -0.912
23 69.00 1200.00 225 428 2.000 10000.000 0.000 -0.912
24 72.00 1200.00 217 463 2.000 10000.000 0.000 -0.912
25 75.00 1200.00 196 393 2.000 10000.000 0.000 -0.912
26 78.00 1200.00 205 397 2.000 10000.000 0.000 -0.912
27 81.00 1200.00 225 295 2.000 10000.000 0.000 -0.912
28 84.00 1200.00 242 278 2.000 10000.000 0.000 -0.912
29 87.00 1200.00 205 215 2.000 10000.000 0.000 -0.912
30 90.00 1200.00 204 234 2.000 10000.000 0.000 -0.912
31 93.00 1200.00 194 217 2.000 10000.000 0.000 -0.912
32 96.00 1200.00 180 235 2.000 10000.000 0.000 -0.912
33 99.00 1200.00 185 245 2.000 10000.000 0.000 -0.912
34 102.00 1200.00 176 265 2.000 10000.000 0.000 -0.912
35 105.00 1200.00 170 306 2.000 10000.000 0.000 -0.912
36 108.00 1200.00 188 375 2.000 10000.000 0.000 -0.912
37 111.00 1200.00 202 426 2.000 10000.000 0.000 -0.912
38 114.00 1200.00 177 442 2.000 10000.000 0.000 -0.912
39 117.00 1200.00 197 438 2.000 10000.000 0.000 -0.912
40 120.00 1200.00 177 436 2.000 10000.000 0.000 -0.912
41 123.00 1200.00 182 412 2.000 10000.000 0.000 -0.912
42 126.00 1200.00 159 382 2.000 10000.000 0.000 -0.912
43 129.00 1200.00 170 316 2.000 10000.000 0.000 -0.912
44 132.00 1200.00 154 308 2.000 10000.000 0.000 -0.912
45 135.00 1200.00 156 265 2.000 10000.000 0.000 -0.912
46 138.00 1200.00 153 230 2.000 10000.000 0.000 -0.912
47 141.00 1200.00 158 230 2.000 10000.000 0.000 -0.912
48 144.00 1200.00 151 229 2.000 10000.000 0.000 -0.912
49 147.00 1200.00 158 250 2.000 10000.000 0.000 -0.912
50 150.00 1200.00 180 284 2.000 10000.000 0.000 -0.912
51 153.00 1200.00 199 296 2.000 10000.000 0.000 -0.912
52 156.00 1200.00 200 368 2.000 10000.000 0.000 -0.912
53 159.00 1200.00 194 378 2.000 10000.000 0.000 -0.912
54 162.00 1200.00 192 444 2.000 10000.000 0.000 -0.912
55 165.00 1200.00 242 418 2.000 10000.000 0.000 -0.912
56 168.00 1200.00 217 466 2.000 10000.000 0.000 -0.912
57 171.00 1200.00 222 426 2.000 10000.000 0.000 -0.912
58 174.00 1200.00 239 447 2.000 10000.000 0.000 -0.912
59 177.00 1200.00 210 394 2.000 10000.000 0.000 -0.912
60 180.00 1200.00 216 324 2.000 10000.000 0.000 -0.912
61 183.00 1200.00 230 295 2.000 10000.000 0.000 -0.912
62 186.00 1200.00 192 261 2.000 10000.000 0.000 -0.912
63 189.00 1200.00 192 230 2.000 10000.000 0.000 -0.912
64 192.00 1200.00 206 213 2.000 10000.000 0.000 -0.912
65 195.00 1200.00 181 204 2.000 10000.000 0.000 -0.912
66 198.00 1200.00 174 264 2.000 10000.000 0.000 -0.912
67 201.00 1200.00 191 281 2.000 10000.000 0.000 -0.912
68 204.00 1200.00 190 313 2.000 10000.000 0.000 -0.912
69 207.00 1200.00 191 344 2.000 10000.000 0.000 -0.912
70 210.00 1200.00 204 406 2.000 10000.000 0.000 -0.912
71 213.00 1200.00 188 471 2.000 10000.000 0.000 -0.912
72 216.00 1200.00 186 412 2.000 10000.000 0.000 -0.912
73 219.00 1200.00 189 454 2.000 10000.000 0.000 -0.912
74 222.00 1200.00 192 425 2.000 10000.000 0.000 -0.912
75 225.00 1200.00 197 403 2.000 10000.000 0.000 -0.912
76 228.00 1200.00 169 360 2.000 10000.000 0.000 -0.912
77 231.00 1200.00 175 297 2.000 10000.000 0.000 -0.912
78 234.00 1200.00 175 286 2.000 10000.000 0.000 -0.912
79 237.00 1200.00 155 228 2.000 10000.000 0.000 -0.912
80 240.00 1200.00 155 227 2.000 10000.000 0.000 -0.912
81 243.00 1200.00 162 254 2.000 10000.000 0.000 -0.912
82 246.00 1200.00 162 243 2.000 10000.000 0.000 -0.912
83 249.00 1200.00 172 263 2.000 10000.000 0.000 -0.912
84 252.00 1200.00 174 326 2.000 10000.000 0.000 -0.912
85 255.00 1200.00 195 370 2.000 10000.000 0.000 -0.912
86 258.00 1200.00 203 385 2.000 10000.000 0.000 -0.912
87 261.00 1200.00 226 416 2.000 10000.000 0.000 -0.912
88 264.00 1200.00 218 421 2.000 10000.000 0.000 -0.912
89 267.00 1200.00 197 472 2.000 10000.000 0.000 -0.912
90 270.00 1200.00 220 422 2.000 10000.000 0.000 -0.912
91 273.00 1200.00 228 437 2.000 10000.000 0.000 -0.912
92 276.00 1200.00 213 419 2.000 10000.000 0.000 -0.912
93 279.00 1200.00 198 362 2.000 10000.000 0.000 -0.912
94 282.00 1200.00 236 297 2.000 10000.000 0.000 -0.912
95 285.00 1200.00 211 249 2.000 10000.000 0.000 -0.912
96 288.00 1200.00 221 247 2.000 10000.000 0.000 -0.912
97 291.00 1200.00 197 236 2.000 10000.000 0.000 -0.912
98 294.00 1200.00 171 238 2.000 10000.000 0.000 -0.912
99 297.00 1200.00 177 250 2.000 10000.000 0.000 -0.912
100 300.00 1200.00 155 256 2.000 10000.000 0.000 -0.912
