# BinNR microsec tot-time (s)  O-Beam H-beam AUX Ampl1(V) f1(Hz) phase1(deg) Ampl1(V) f1(Hz) phase1(deg) chi(pos)
0 0.00 1200.00 34 268 53 0.850 2000.000 0.000 0.850 3000.000 0.000 1.362
1 16.67 1200.00 23 300 58 0.850 2000.000 0.000 0.850 3000.000 0.000 1.362
2 33.33 1200.00 28 271 74 0.850 2000.000 0.000 0.850 3000.000 0.000 1.362
3 50.00 1200.00 28 285 70 0.850 2000.000 0.000 0.850 3000.000 0.000 1.362
4 66.67 1200.00 23 288 55 0.850 2000.000 0.000 0.850 3000.000 0.000 1.362
5 83.33 1200.00 20 339 49 0.850 2000.000 0.000 0.850 3000.000 0.000 1.362
6 100.00 1200.00 32 322 65 0.850 2000.000 0.000 0.850 3000.000 0.000 1.362
7 116.67 1200.00 21 332 77 0.850 2000.000 0.000 0.850 3000.000 0.000 1.362
8 133.33 1200.00 26 317 56 0.850 2000.000 0.000 0.850 3000.000 0.000 1.362
9 150.00 1200.00 17 319 59 0.850 2000.000 0.000 0.850 3000.000 0.000 1.362
10 166.67 1200.00 15 300 55 0.850 2000.000 0.000 0.850 3000.000 0.000 1.362
11 183.33 1200.00 15 280 54 0.850 2000.000 0.000 0.850 3000.000 0.000 1.362
12 200.00 1200.00 10 277 58 0.850 2000.000 0.000 0.850 3000.000 0.000 1.362
13 216.67 1200.00 14 303 59 0.850 2000.000 0.000 0.850 3000.000 0.000 1.362
14 233.33 1200.00 6 276 38 0.850 2000.000 0.000 0.850 3000.000 0.000 1.362
15 250.00 1200.00 14 283 73 0.850 2000.000 0.000 0.850 3000.000 0.000 1.362
16 266.67 1200.00 21 246 63 0.850 2000.000 0.000 0.850 3000.000 0.000 1.362
17 283.33 1200.00 17 261 79 0.850 2000.000 0.000 0.850 3000.000 0.000 1.362
18 300.00 1200.00 21 247 69 0.850 2000.000 0.000 0.850 3000.000 0.000 1.362
19 316.67 1200.00 31 275 74 0.850 2000.000 0.000 0.850 3000.000 0.000 1.362
20 333.33 1200.00 36 286 71 0.850 2000.000 0.000 0.850 3000.000 0.000 1.362
21 350.00 1200.00 33 260 59 0.850 2000.000 0.000 0.850 3000.000 0.000 1.362
22 366.67 1200.00 33 314 80 0.850 2000.000 0.000 0.850 3000.000 0.000 1.362
23 383.33 1200.00 38 293 61 0.850 2000.000 0.000 0.850 3000.000 0.000 1.362
24 400.00 1200.00 42 280 43 0.850 2000.000 0.000 0.850 3000.000 0.000 1.362
25 416.67 1200.00 47 278 46 0.850 2000.000 0.000 0.850 3000.000 0.000 1.362
26 433.33 1200.00 40 300 33 0.850 2000.000 0.000 0.850 3000.000 0.000 1.362
27 450.00 1200.00 33 292 30 0.850 2000.000 0.000 0.850 3000.000 0.000 1.362
28 466.67 1200.00 25 284 38 0.850 2000.000 0.000 0.850 3000.000 0.000 1.362
29 483.33 1200.00 37 250 36 0.850 2000.000 0.000 0.850 3000.000 0.000 1.362
30 500.00 1200.00 13 263 34 0.850 2000.000 0.000 0.850 3000.000 0.000 1.362
31 516.67 1200.00 12 267 36 0.850 2000.000 0.000 0.850 3000.000 0.000 1.362
32 533.33 1200.00 16 235 35 0.850 2000.000 0.000 0.850 3000.000 0.000 1.362
33 550.00 1200.00 15 266 31 0.850 2000.000 0.000 0.850 3000.000 0.000 1.362
34 566.67 1200.00 19 280 39 0.850 2000.000 0.000 0.850 3000.000 0.000 1.362
35 583.33 1200.00 13 278 50 0.850 2000.000 0.000 0.850 3000.000 0.000 1.362
36 600.00 1200.00 16 252 56 0.850 2000.000 0.000 0.850 3000.000 0.000 1.362
37 616.67 1200.00 10 283 77 0.850 2000.000 0.000 0.850 3000.000 0.000 1.362
38 633.33 1200.00 13 273 63 0.850 2000.000 0.000 0.850 3000.000 0.000 1.362
39 650.00 1200.00 19 299 88 0.850 2000.000 0.000 0.850 3000.000 0.000 1.362
40 666.67 1200.00 15 316 79 0.850 2000.000 0.000 0.850 3000.000 0.000 1.362
41 683.33 1200.00 19 291 77 0.850 2000.000 0.000 0.850 3000.000 0.000 1.362
42 700.00 1200.00 30 306 92 0.850 2000.000 0.000 0.850 3000.000 0.000 1.362
43 716.67 1200.00 24 313 71 0.850 2000.000 0.000 0.850 3000.000 0.000 1.362
44 733.33 1200.00 31 321 73 0.850 2000.000 0.000 0.850 3000.000 0.000 1.362
45 750.00 1200.00 18 321 74 0.850 2000.000 0.000 0.850 3000.000 0.000 1.362
46 766.67 1200.00 28 312 64 0.850 2000.000 0.000 0.850 3000.000 0.000 1.362
47 783.33 1200.00 24 280 55 0.850 2000.000 0.000 0.850 3000.000 0.000 1.362
48 800.00 1200.00 27 305 40 0.850 2000.000 0.000 0.850 3000.000 0.000 1.362
49 816.67 1200.00 30 272 53 0.850 2000.000 0.000 0.850 3000.000 0.000 1.362
50 833.34 1200.00 29 284 40 0.850 2000.000 0.000 0.850 3000.000 0.000 1.362
51 850.00 1200.00 33 260 32 0.850 2000.000 0.000 0.850 3000.000 0.000 1.362
52 866.67 1200.00 25 275 35 0.850 2000.000 0.000 0.850 3000.000 0.000 1.362
53 883.34 1200.00 20 241 35 0.850 2000.000 0.000 0.850 3000.000 0.000 1.362
54 900.00 1200.00 31 234 39 0.850 2000.000 0.000 0.850 3000.000 0.000 1.362
55 916.67 1200.00 21 235 37 0.850 2000.000 0.000 0.850 3000.000 0.000 1.362
56 933.34 1200.00 23 221 33 0.850 2000.000 0.000 0.850 3000.000 0.000 1.362
57 950.00 1200.00 22 237 62 0.850 2000.000 0.000 0.850 3000.000 0.000 1.362
58 966.67 1200.00 27 239 50 0.850 2000.000 0.000 0.850 3000.000 0.000 1.362
59 983.34 1200.00 35 265 43 0.850 2000.000 0.000 0.850 3000.000 0.000 1.362
60 1000.00 1200.00 25 283 50 0.850 2000.000 0.000 0.850 3000.000 0.000 1.362
61 1016.67 1200.00 37 289 61 0.850 2000.000 0.000 0.850 3000.000 0.000 1.362
62 1033.34 1200.00 35 287 65 0.850 2000.000 0.000 0.850 3000.000 0.000 1.362
63 1050.00 1200.00 32 289 68 0.850 2000.000 0.000 0.850 3000.000 0.000 1.362
64 1066.67 1200.00 33 337 61 0.850 2000.000 0.000 0.850 3000.000 0.000 1.362
65 1083.34 1200.00 32 330 51 0.850 2000.000 0.000 0.850 3000.000 0.000 1.362
66 1100.00 1200.00 27 317 55 0.850 2000.000 0.000 0.850 3000.000 0.000 1.362
67 1116.67 1200.00 32 339 69 0.850 2000.000 0.000 0.850 3000.000 0.000 1.362
68 1133.34 1200.00 25 339 56 0.850 2000.000 0.000 0.850 3000.000 0.000 1.362
69 1150.00 1200.00 16 342 55 0.850 2000.000 0.000 0.850 3000.000 0.000 1.362
70 1166.67 1200.00 19 278 51 0.850 2000.000 0.000 0.850 3000.000 0.000 1.362
71 1183.34 1200.00 11 280 59 0.850 2000.000 0.000 0.850 3000.000 0.000 1.362
72 1200.00 1200.00 16 277 54 0.850 2000.000 0.000 0.850 3000.000 0.000 1.362
73 1216.67 1200.00 13 284 63 0.850 2000.000 0.000 0.850 3000.000 0.000 1.362
74 1233.34 1200.00 14 245 58 0.850 2000.000 0.000 0.850 3000.000 0.000 1.362
75 1250.00 1200.00 15 257 65 0.850 2000.000 0.000 0.850 3000.000 0.000 1.362
76 1266.67 1200.00 16 263 72 0.850 2000.000 0.000 0.850 3000.000 0.000 1.362
77 1283.34 1200.00 26 271 87 0.850 2000.000 0.000 0.850 3000.000 0.000 1.362
78 1300.00 1200.00 27 258 64 0.850 2000.000 0.000 0.850 3000.000 0.000 1.362
79 1316.67 1200.00 25 259 73 0.850 2000.000 0.000 0.850 3000.000 0.000 1.362
80 1333.34 1200.00 22 255 70 0.850 2000.000 0.000 0.850 3000.000 0.000 1.362
81 1350.00 1200.00 29 241 65 0.850 2000.000 0.000 0.850 3000.000 0.000 1.362
82 1366.67 1200.00 34 266 55 0.850 2000.000 0.000 0.850 3000.000 0.000 1.362
83 1383.34 1200.00 32 273 62 0.850 2000.000 0.000 0.850 3000.000 0.000 1.362
84 1400.00 1200.00 44 275 53 0.850 2000.000 0.000 0.850 3000.000 0.000 1.362
85 1416.67 1200.00 35 250 47 0.850 2000.000 0.000 0.850 3000.000 0.000 1.362
86 1433.34 1200.00 42 296 44 0.850 2000.000 0.000 0.850 3000.000 0.000 1.362
87 1450.00 1200.00 42 267 50 0.850 2000.000 0.000 0.850 3000.000 0.000 1.362
88 1466.67 1200.00 30 278 41 0.850 2000.000 0.000 0.850 3000.000 0.000 1.362
89 1483.34 1200.00 36 298 35 0.850 2000.000 0.000 0.850 3000.000 0.000 1.362
90 1500.00 1200.00 21 285 34 0.850 2000.000 0.000 0.850 3000.000 0.000 1.362
91 1516.67 1200.00 15 263 39 0.850 2000.000 0.000 0.850 3000.000 0.000 1.362
92 1533.34 1200.00 17 237 48 0.850 2000.000 0.000 0.850 3000.000 0.000 1.362
93 1550.00 1200.00 17 230 46 0.850 2000.000 0.000 0.850 3000.000 0.000 1.362
94 1566.67 1200.00 19 266 43 0.850 2000.000 0.000 0.850 3000.000 0.000 1.362
95 1583.34 1200.00 13 286 47 0.850 2000.000 0.000 0.850 3000.000 0.000 1.362
96 1600.00 1200.00 15 268 51 0.850 2000.000 0.000 0.850 3000.000 0.000 1.362
97 1616.67 1200.00 18 265 65 0.850 2000.000 0.000 0.850 3000.000 0.000 1.362
98 1633.34 1200.00 10 275 71 0.850 2000.000 0.000 0.850 3000.000 0.000 1.362
99 1650.00 1200.00 15 305 81 0.850 2000.000 0.000 0.850 3000.000 0.000 1.362
100 1666.67 1200.00 24 337 77 0.850 2000.000 0.000 0.850 3000.000 0.000 1.362
101 1683.34 1200.00 16 319 98 0.850 2000.000 0.000 0.850 3000.000 0.000 1.362
102 1700.00 1200.00 31 298 75 0.850 2000.000 0.000 0.850 3000.000 0.000 1.362
103 1716.67 1200.00 23 325 90 0.850 2000.000 0.000 0.850 3000.000 0.000 1.362
104 1733.34 1200.00 34 329 82 0.850 2000.000 0.000 0.850 3000.000 0.000 1.362
105 1750.00 1200.00 31 321 69 0.850 2000.000 0.000 0.850 3000.000 0.000 1.362
106 1766.67 1200.00 28 310 71 0.850 2000.000 0.000 0.850 3000.000 0.000 1.362
107 1783.34 1200.00 23 265 50 0.850 2000.000 0.000 0.850 3000.000 0.000 1.362
108 1800.00 1200.00 26 288 60 0.850 2000.000 0.000 0.850 3000.000 0.000 1.362
109 1816.67 1200.00 19 289 48 0.850 2000.000 0.000 0.850 3000.000 0.000 1.362
110 1833.34 1200.00 31 258 35 0.850 2000.000 0.000 0.850 3000.000 0.000 1.362
111 1850.00 1200.00 23 254 25 0.850 2000.000 0.000 0.850 3000.000 0.000 1.362
112 1866.67 1200.00 35 195 44 0.850 2000.000 0.000 0.850 3000.000 0.000 1.362
113 1883.34 1200.00 25 217 30 0.850 2000.000 0.000 0.850 3000.000 0.000 1.362
114 1900.00 1200.00 23 214 35 0.850 2000.000 0.000 0.850 3000.000 0.000 1.362
115 1916.67 1200.00 31 218 26 0.850 2000.000 0.000 0.850 3000.000 0.000 1.362
116 1933.34 1200.00 22 205 45 0.850 2000.000 0.000 0.850 3000.000 0.000 1.362
117 1950.00 1200.00 30 238 49 0.850 2000.000 0.000 0.850 3000.000 0.000 1.362
118 1966.67 1200.00 26 269 59 0.850 2000.000 0.000 0.850 3000.000 0.000 1.362
119 1983.34 1200.00 22 237 50 0.850 2000.000 0.000 0.850 3000.000 0.000 1.362
