# BinNR microsec tot-time (s)  O-Beam H-beam AUX Ampl1(V) f1(Hz) phase1(deg) Ampl1(V) f1(Hz) phase1(deg) chi(pos)
0 0.00 1200.00 27 298 48 0.850 2000.000 0.000 0.850 3000.000 0.000 1.505
1 16.67 1200.00 23 321 41 0.850 2000.000 0.000 0.850 3000.000 0.000 1.505
2 33.33 1200.00 19 285 40 0.850 2000.000 0.000 0.850 3000.000 0.000 1.505
3 50.00 1200.00 22 319 42 0.850 2000.000 0.000 0.850 3000.000 0.000 1.505
4 66.67 1200.00 18 322 45 0.850 2000.000 0.000 0.850 3000.000 0.000 1.505
5 83.33 1200.00 21 314 39 0.850 2000.000 0.000 0.850 3000.000 0.000 1.505
6 100.00 1200.00 17 348 41 0.850 2000.000 0.000 0.850 3000.000 0.000 1.505
7 116.67 1200.00 17 325 48 0.850 2000.000 0.000 0.850 3000.000 0.000 1.505
8 133.33 1200.00 18 331 44 0.850 2000.000 0.000 0.850 3000.000 0.000 1.505
9 150.00 1200.00 13 329 33 0.850 2000.000 0.000 0.850 3000.000 0.000 1.505
10 166.67 1200.00 11 330 33 0.850 2000.000 0.000 0.850 3000.000 0.000 1.505
11 183.33 1200.00 8 269 43 0.850 2000.000 0.000 0.850 3000.000 0.000 1.505
12 200.00 1200.00 18 331 37 0.850 2000.000 0.000 0.850 3000.000 0.000 1.505
13 216.67 1200.00 15 291 33 0.850 2000.000 0.000 0.850 3000.000 0.000 1.505
14 233.33 1200.00 16 288 44 0.850 2000.000 0.000 0.850 3000.000 0.000 1.505
15 250.00 1200.00 13 298 44 0.850 2000.000 0.000 0.850 3000.000 0.000 1.505
16 266.67 1200.00 13 305 43 0.850 2000.000 0.000 0.850 3000.000 0.000 1.505
17 283.33 1200.00 13 266 43 0.850 2000.000 0.000 0.850 3000.000 0.000 1.505
18 300.00 1200.00 11 292 46 0.850 2000.000 0.000 0.850 3000.000 0.000 1.505
19 316.67 1200.00 22 308 53 0.850 2000.000 0.000 0.850 3000.000 0.000 1.505
20 333.33 1200.00 18 290 42 0.850 2000.000 0.000 0.850 3000.000 0.000 1.505
21 350.00 1200.00 19 304 57 0.850 2000.000 0.000 0.850 3000.000 0.000 1.505
22 366.67 1200.00 18 312 46 0.850 2000.000 0.000 0.850 3000.000 0.000 1.505
23 383.33 1200.00 28 316 31 0.850 2000.000 0.000 0.850 3000.000 0.000 1.505
24 400.00 1200.00 21 292 35 0.850 2000.000 0.000 0.850 3000.000 0.000 1.505
25 416.67 1200.00 27 312 32 0.850 2000.000 0.000 0.850 3000.000 0.000 1.505
26 433.33 1200.00 31 314 25 0.850 2000.000 0.000 0.850 3000.000 0.000 1.505
27 450.00 1200.00 24 309 27 0.850 2000.000 0.000 0.850 3000.000 0.000 1.505
28 466.67 1200.00 35 306 28 0.850 2000.000 0.000 0.850 3000.000 0.000 1.505
29 483.33 1200.00 28 317 25 0.850 2000.000 0.000 0.850 3000.000 0.000 1.505
30 500.00 1200.00 21 294 31 0.850 2000.000 0.000 0.850 3000.000 0.000 1.505
31 516.67 1200.00 16 272 24 0.850 2000.000 0.000 0.850 3000.000 0.000 1.505
32 533.33 1200.00 14 281 28 0.850 2000.000 0.000 0.850 3000.000 0.000 1.505
33 550.00 1200.00 11 307 42 0.850 2000.000 0.000 0.850 3000.000 0.000 1.505
34 566.67 1200.00 10 296 30 0.850 2000.000 0.000 0.850 3000.000 0.000 1.505
35 583.33 1200.00 11 318 44 0.850 2000.000 0.000 0.850 3000.000 0.000 1.505
36 600.00 1200.00 11 308 46 0.850 2000.000 0.000 0.850 3000.000 0.000 1.505
37 616.67 1200.00 11 299 40 0.850 2000.000 0.000 0.850 3000.000 0.000 1.505
38 633.33 1200.00 17 301 60 0.850 2000.000 0.000 0.850 3000.000 0.000 1.505
39 650.00 1200.00 13 352 59 0.850 2000.000 0.000 0.850 3000.000 0.000 1.505
40 666.67 1200.00 13 319 62 0.850 2000.000 0.000 0.850 3000.000 0.000 1.505
41 683.33 1200.00 15 319 78 0.850 2000.000 0.000 0.850 3000.000 0.000 1.505
42 700.00 1200.00 13 351 76 0.850 2000.000 0.000 0.850 3000.000 0.000 1.505
43 716.67 1200.00 17 355 56 0.850 2000.000 0.000 0.850 3000.000 0.000 1.505
44 733.33 1200.00 20 327 65 0.850 2000.000 0.000 0.850 3000.000 0.000 1.505
45 750.00 1200.00 21 340 50 0.850 2000.000 0.000 0.850 3000.000 0.000 1.505
46 766.67 1200.00 17 335 50 0.850 2000.000 0.000 0.850 3000.000 0.000 1.505
47 783.33 1200.00 20 330 36 0.850 2000.000 0.000 0.850 3000.000 0.000 1.505
48 800.00 1200.00 24 303 43 0.850 2000.000 0.000 0.850 3000.000 0.000 1.505
49 816.67 1200.00 16 296 37 0.850 2000.000 0.000 0.850 3000.000 0.000 1.505
50 833.34 1200.00 15 311 32 0.850 2000.000 0.000 0.850 3000.000 0.000 1.505
51 850.00 1200.00 19 309 28 0.850 2000.000 0.000 0.850 3000.000 0.000 1.505
52 866.67 1200.00 26 271 27 0.850 2000.000 0.000 0.850 3000.000 0.000 1.505
53 883.34 1200.00 25 244 24 0.850 2000.000 0.000 0.850 3000.000 0.000 1.505
54 900.00 1200.00 20 243 29 0.850 2000.000 0.000 0.850 3000.000 0.000 1.505
55 916.67 1200.00 19 280 24 0.850 2000.000 0.000 0.850 3000.000 0.000 1.505
56 933.34 1200.00 23 292 29 0.850 2000.000 0.000 0.850 3000.000 0.000 1.505
57 950.00 1200.00 22 267 34 0.850 2000.000 0.000 0.850 3000.000 0.000 1.505
58 966.67 1200.00 26 266 36 0.850 2000.000 0.000 0.850 3000.000 0.000 1.505
59 983.34 1200.00 19 330 32 0.850 2000.000 0.000 0.850 3000.000 0.000 1.505
60 1000.00 1200.00 23 305 38 0.850 2000.000 0.000 0.850 3000.000 0.000 1.505
61 1016.67 1200.00 27 290 35 0.850 2000.000 0.000 0.850 3000.000 0.000 1.505
62 1033.34 1200.00 29 312 46 0.850 2000.000 0.000 0.850 3000.000 0.000 1.505
63 1050.00 1200.00 18 347 49 0.850 2000.000 0.000 0.850 3000.000 0.000 1.505
64 1066.67 1200.00 19 305 46 0.850 2000.000 0.000 0.850 3000.000 0.000 1.505
65 1083.34 1200.00 16 312 53 0.850 2000.000 0.000 0.850 3000.000 0.000 1.505
66 1100.00 1200.00 27 289 37 0.850 2000.000 0.000 0.850 3000.000 0.000 1.505
67 1116.67 1200.00 17 346 37 0.850 2000.000 0.000 0.850 3000.000 0.000 1.505
68 1133.34 1200.00 18 313 40 0.850 2000.000 0.000 0.850 3000.000 0.000 1.505
69 1150.00 1200.00 15 318 38 0.850 2000.000 0.000 0.850 3000.000 0.000 1.505
70 1166.67 1200.00 19 306 36 0.850 2000.000 0.000 0.850 3000.000 0.000 1.505
71 1183.34 1200.00 14 320 40 0.850 2000.000 0.000 0.850 3000.000 0.000 1.505
72 1200.00 1200.00 8 325 38 0.850 2000.000 0.000 0.850 3000.000 0.000 1.505
73 1216.67 1200.00 16 306 48 0.850 2000.000 0.000 0.850 3000.000 0.000 1.505
74 1233.34 1200.00 19 297 59 0.850 2000.000 0.000 0.850 3000.000 0.000 1.505
75 1250.00 1200.00 12 270 54 0.850 2000.000 0.000 0.850 3000.000 0.000 1.505
76 1266.67 1200.00 13 296 40 0.850 2000.000 0.000 0.850 3000.000 0.000 1.505
77 1283.34 1200.00 10 283 55 0.850 2000.000 0.000 0.850 3000.000 0.000 1.505
78 1300.00 1200.00 23 283 42 0.850 2000.000 0.000 0.850 3000.000 0.000 1.505
79 1316.67 1200.00 18 291 55 0.850 2000.000 0.000 0.850 3000.000 0.000 1.505
80 1333.34 1200.00 33 315 62 0.850 2000.000 0.000 0.850 3000.000 0.000 1.505
81 1350.00 1200.00 28 325 50 0.850 2000.000 0.000 0.850 3000.000 0.000 1.505
82 1366.67 1200.00 21 302 52 0.850 2000.000 0.000 0.850 3000.000 0.000 1.505
83 1383.34 1200.00 28 290 39 0.850 2000.000 0.000 0.850 3000.000 0.000 1.505
84 1400.00 1200.00 35 290 35 0.850 2000.000 0.000 0.850 3000.000 0.000 1.505
85 1416.67 1200.00 32 278 34 0.850 2000.000 0.000 0.850 3000.000 0.000 1.505
86 1433.34 1200.00 27 284 31 0.850 2000.000 0.000 0.850 3000.000 0.000 1.505
87 1450.00 1200.00 27 284 35 0.850 2000.000 0.000 0.850 3000.000 0.000 1.505
88 1466.67 1200.00 27 316 32 0.850 2000.000 0.000 0.850 3000.000 0.000 1.505
89 1483.34 1200.00 25 281 33 0.850 2000.000 0.000 0.850 3000.000 0.000 1.505
90 1500.00 1200.00 16 291 28 0.850 2000.000 0.000 0.850 3000.000 0.000 1.505
91 1516.67 1200.00 20 296 23 0.850 2000.000 0.000 0.850 3000.000 0.000 1.505
92 1533.34 1200.00 15 256 31 0.850 2000.000 0.000 0.850 3000.000 0.000 1.505
93 1550.00 1200.00 17 287 30 0.850 2000.000 0.000 0.850 3000.000 0.000 1.505
94 1566.67 1200.00 10 310 28 0.850 2000.000 0.000 0.850 3000.000 0.000 1.505
95 1583.34 1200.00 6 277 31 0.850 2000.000 0.000 0.850 3000.000 0.000 1.505
96 1600.00 1200.00 13 292 50 0.850 2000.000 0.000 0.850 3000.000 0.000 1.505
97 1616.67 1200.00 11 271 50 0.850 2000.000 0.000 0.850 3000.000 0.000 1.505
98 1633.34 1200.00 15 309 49 0.850 2000.000 0.000 0.850 3000.000 0.000 1.505
99 1650.00 1200.00 14 307 58 0.850 2000.000 0.000 0.850 3000.000 0.000 1.505
100 1666.67 1200.00 14 327 58 0.850 2000.000 0.000 0.850 3000.000 0.000 1.505
101 1683.34 1200.00 14 352 71 0.850 2000.000 0.000 0.850 3000.000 0.000 1.505
102 1700.00 1200.00 14 319 66 0.850 2000.000 0.000 0.850 3000.000 0.000 1.505
103 1716.67 1200.00 28 342 61 0.850 2000.000 0.000 0.850 3000.000 0.000 1.505
104 1733.34 1200.00 16 303 59 0.850 2000.000 0.000 0.850 3000.000 0.000 1.505
105 1750.00 1200.00 23 344 52 0.850 2000.000 0.000 0.850 3000.000 0.000 1.505
106 1766.67 1200.00 17 341 51 0.850 2000.000 0.000 0.850 3000.000 0.000 1.505
107 1783.34 1200.00 18 342 34 0.850 2000.000 0.000 0.850 3000.000 0.000 1.505
108 1800.00 1200.00 20 279 28 0.850 2000.000 0.000 0.850 3000.000 0.000 1.505
109 1816.67 1200.00 23 327 25 0.850 2000.000 0.000 0.850 3000.000 0.000 1.505
110 1833.34 1200.00 16 265 37 0.850 2000.000 0.000 0.850 3000.000 0.000 1.505
111 1850.00 1200.00 21 285 30 0.850 2000.000 0.000 0.850 3000.000 0.000 1.505
112 1866.67 1200.00 19 277 33 0.850 2000.000 0.000 0.850 3000.000 0.000 1.505
113 1883.34 1200.00 17 241 31 0.850 2000.000 0.000 0.850 3000.000 0.000 1.505
114 1900.00 1200.00 18 262 32 0.850 2000.000 0.000 0.850 3000.000 0.000 1.505
115 1916.67 1200.00 16 233 31 0.850 2000.000 0.000 0.850 3000.000 0.000 1.505
116 1933.34 1200.00 19 272 27 0.850 2000.000 0.000 0.850 3000.000 0.000 1.505
117 1950.00 1200.00 16 269 27 0.850 2000.000 0.000 0.850 3000.000 0.000 1.505
118 1966.67 1200.00 28 263 26 0.850 2000.000 0.000 0.850 3000.000 0.000 1.505
119 1983.34 1200.00 19 267 44 0.850 2000.000 0.000 0.850 3000.000 0.000 1.505
