# BinNR microsec tot-time (s)  O-Beam H-beam AUX Ampl1(V) f1(Hz) phase1(deg) Ampl1(V) f1(Hz) phase1(deg) chi(pos)
0 0.00 1200.00 20 258 66 0.850 2000.000 0.000 0.850 3000.000 0.000 0.220
1 16.67 1200.00 30 283 65 0.850 2000.000 0.000 0.850 3000.000 0.000 0.220
2 33.33 1200.00 18 233 54 0.850 2000.000 0.000 0.850 3000.000 0.000 0.220
3 50.00 1200.00 22 213 57 0.850 2000.000 0.000 0.850 3000.000 0.000 0.220
4 66.67 1200.00 24 224 59 0.850 2000.000 0.000 0.850 3000.000 0.000 0.220
5 83.33 1200.00 22 194 67 0.850 2000.000 0.000 0.850 3000.000 0.000 0.220
6 100.00 1200.00 19 207 65 0.850 2000.000 0.000 0.850 3000.000 0.000 0.220
7 116.67 1200.00 19 208 71 0.850 2000.000 0.000 0.850 3000.000 0.000 0.220
8 133.33 1200.00 29 258 75 0.850 2000.000 0.000 0.850 3000.000 0.000 0.220
9 150.00 1200.00 28 210 81 0.850 2000.000 0.000 0.850 3000.000 0.000 0.220
10 166.67 1200.00 31 241 84 0.850 2000.000 0.000 0.850 3000.000 0.000 0.220
11 183.33 1200.00 40 234 69 0.850 2000.000 0.000 0.850 3000.000 0.000 0.220
12 200.00 1200.00 39 231 60 0.850 2000.000 0.000 0.850 3000.000 0.000 0.220
13 216.67 1200.00 30 240 55 0.850 2000.000 0.000 0.850 3000.000 0.000 0.220
14 233.33 1200.00 44 233 77 0.850 2000.000 0.000 0.850 3000.000 0.000 0.220
15 250.00 1200.00 45 222 64 0.850 2000.000 0.000 0.850 3000.000 0.000 0.220
16 266.67 1200.00 32 276 53 0.850 2000.000 0.000 0.850 3000.000 0.000 0.220
17 283.33 1200.00 33 284 55 0.850 2000.000 0.000 0.850 3000.000 0.000 0.220
18 300.00 1200.00 31 263 57 0.850 2000.000 0.000 0.850 3000.000 0.000 0.220
19 316.67 1200.00 14 280 59 0.850 2000.000 0.000 0.850 3000.000 0.000 0.220
20 333.33 1200.00 22 259 58 0.850 2000.000 0.000 0.850 3000.000 0.000 0.220
21 350.00 1200.00 16 226 59 0.850 2000.000 0.000 0.850 3000.000 0.000 0.220
22 366.67 1200.00 22 257 65 0.850 2000.000 0.000 0.850 3000.000 0.000 0.220
23 383.33 1200.00 14 244 61 0.850 2000.000 0.000 0.850 3000.000 0.000 0.220
24 400.00 1200.00 22 232 64 0.850 2000.000 0.000 0.850 3000.000 0.000 0.220
25 416.67 1200.00 25 231 83 0.850 2000.000 0.000 0.850 3000.000 0.000 0.220
26 433.33 1200.00 23 241 83 0.850 2000.000 0.000 0.850 3000.000 0.000 0.220
27 450.00 1200.00 22 257 95 0.850 2000.000 0.000 0.850 3000.000 0.000 0.220
28 466.67 1200.00 25 285 100 0.850 2000.000 0.000 0.850 3000.000 0.000 0.220
29 483.33 1200.00 22 249 93 0.850 2000.000 0.000 0.850 3000.000 0.000 0.220
30 500.00 1200.00 22 263 100 0.850 2000.000 0.000 0.850 3000.000 0.000 0.220
31 516.67 1200.00 35 241 73 0.850 2000.000 0.000 0.850 3000.000 0.000 0.220
32 533.33 1200.00 30 261 101 0.850 2000.000 0.000 0.850 3000.000 0.000 0.220
33 550.00 1200.00 24 261 82 0.850 2000.000 0.000 0.850 3000.000 0.000 0.220
34 566.67 1200.00 35 274 70 0.850 2000.000 0.000 0.850 3000.000 0.000 0.220
35 583.33 1200.00 35 255 74 0.850 2000.000 0.000 0.850 3000.000 0.000 0.220
36 600.00 1200.00 33 272 61 0.850 2000.000 0.000 0.850 3000.000 0.000 0.220
37 616.67 1200.00 35 260 58 0.850 2000.000 0.000 0.850 3000.000 0.000 0.220
38 633.33 1200.00 43 237 57 0.850 2000.000 0.000 0.850 3000.000 0.000 0.220
39 650.00 1200.00 25 230 42 0.850 2000.000 0.000 0.850 3000.000 0.000 0.220
40 666.67 1200.00 37 228 47 0.850 2000.000 0.000 0.850 3000.000 0.000 0.220
41 683.33 1200.00 31 186 45 0.850 2000.000 0.000 0.850 3000.000 0.000 0.220
42 700.00 1200.00 32 192 48 0.850 2000.000 0.000 0.850 3000.000 0.000 0.220
43 716.67 1200.00 22 207 38 0.850 2000.000 0.000 0.850 3000.000 0.000 0.220
44 733.33 1200.00 23 233 53 0.850 2000.000 0.000 0.850 3000.000 0.000 0.220
45 750.00 1200.00 25 222 45 0.850 2000.000 0.000 0.850 3000.000 0.000 0.220
46 766.67 1200.00 25 214 57 0.850 2000.000 0.000 0.850 3000.000 0.000 0.220
47 783.33 1200.00 22 238 65 0.850 2000.000 0.000 0.850 3000.000 0.000 0.220
48 800.00 1200.00 20 241 64 0.850 2000.000 0.000 0.850 3000.000 0.000 0.220
49 816.67 1200.00 27 248 78 0.850 2000.000 0.000 0.850 3000.000 0.000 0.220
50 833.34 1200.00 29 255 82 0.850 2000.000 0.000 0.850 3000.000 0.000 0.220
51 850.00 1200.00 21 272 86 0.850 2000.000 0.000 0.850 3000.000 0.000 0.220
52 866.67 1200.00 26 254 85 0.850 2000.000 0.000 0.850 3000.000 0.000 0.220
53 883.34 1200.00 28 321 87 0.850 2000.000 0.000 0.850 3000.000 0.000 0.220
54 900.00 1200.00 17 312 108 0.850 2000.000 0.000 0.850 3000.000 0.000 0.220
55 916.67 1200.00 27 292 92 0.850 2000.000 0.000 0.850 3000.000 0.000 0.220
56 933.34 1200.00 33 272 75 0.850 2000.000 0.000 0.850 3000.000 0.000 0.220
57 950.00 1200.00 33 276 81 0.850 2000.000 0.000 0.850 3000.000 0.000 0.220
58 966.67 1200.00 25 291 81 0.850 2000.000 0.000 0.850 3000.000 0.000 0.220
59 983.34 1200.00 16 248 66 0.850 2000.000 0.000 0.850 3000.000 0.000 0.220
60 1000.00 1200.00 10 271 76 0.850 2000.000 0.000 0.850 3000.000 0.000 0.220
61 1016.67 1200.00 31 221 76 0.850 2000.000 0.000 0.850 3000.000 0.000 0.220
62 1033.34 1200.00 18 233 66 0.850 2000.000 0.000 0.850 3000.000 0.000 0.220
63 1050.00 1200.00 19 219 69 0.850 2000.000 0.000 0.850 3000.000 0.000 0.220
64 1066.67 1200.00 18 219 57 0.850 2000.000 0.000 0.850 3000.000 0.000 0.220
65 1083.34 1200.00 26 218 57 0.850 2000.000 0.000 0.850 3000.000 0.000 0.220
66 1100.00 1200.00 20 229 53 0.850 2000.000 0.000 0.850 3000.000 0.000 0.220
67 1116.67 1200.00 17 207 65 0.850 2000.000 0.000 0.850 3000.000 0.000 0.220
68 1133.34 1200.00 40 213 65 0.850 2000.000 0.000 0.850 3000.000 0.000 0.220
69 1150.00 1200.00 34 223 70 0.850 2000.000 0.000 0.850 3000.000 0.000 0.220
70 1166.67 1200.00 36 239 91 0.850 2000.000 0.000 0.850 3000.000 0.000 0.220
71 1183.34 1200.00 37 260 64 0.850 2000.000 0.000 0.850 3000.000 0.000 0.220
72 1200.00 1200.00 34 253 69 0.850 2000.000 0.000 0.850 3000.000 0.000 0.220
73 1216.67 1200.00 42 243 72 0.850 2000.000 0.000 0.850 3000.000 0.000 0.220
74 1233.34 1200.00 32 272 61 0.850 2000.000 0.000 0.850 3000.000 0.000 0.220
75 1250.00 1200.00 33 239 59 0.850 2000.000 0.000 0.850 3000.000 0.000 0.220
76 1266.67 1200.00 48 256 58 0.850 2000.000 0.000 0.850 3000.000 0.000 0.220
77 1283.34 1200.00 34 274 60 0.850 2000.000 0.000 0.850 3000.000 0.000 0.220
78 1300.00 1200.00 31 264 59 0.850 2000.000 0.000 0.850 3000.000 0.000 0.220
79 1316.67 1200.00 26 260 53 0.850 2000.000 0.000 0.850 3000.000 0.000 0.220
80 1333.34 1200.00 14 274 49 0.850 2000.000 0.000 0.850 3000.000 0.000 0.220
81 1350.00 1200.00 13 243 54 0.850 2000.000 0.000 0.850 3000.000 0.000 0.220
82 1366.67 1200.00 17 251 47 0.850 2000.000 0.000 0.850 3000.000 0.000 0.220
83 1383.34 1200.00 22 239 80 0.850 2000.000 0.000 0.850 3000.000 0.000 0.220
84 1400.00 1200.00 17 272 75 0.850 2000.000 0.000 0.850 3000.000 0.000 0.220
85 1416.67 1200.00 14 261 95 0.850 2000.000 0.000 0.850 3000.000 0.000 0.220
86 1433.34 1200.00 12 271 83 0.850 2000.000 0.000 0.850 3000.000 0.000 0.220
87 1450.00 1200.00 19 248 88 0.850 2000.000 0.000 0.850 3000.000 0.000 0.220
88 1466.67 1200.00 23 234 99 0.850 2000.000 0.000 0.850 3000.000 0.000 0.220
89 1483.34 1200.00 21 269 81 0.850 2000.000 0.000 0.850 3000.000 0.000 0.220
90 1500.00 1200.00 13 268 77 0.850 2000.000 0.000 0.850 3000.000 0.000 0.220
91 1516.67 1200.00 31 259 101 0.850 2000.000 0.000 0.850 3000.000 0.000 0.220
92 1533.34 1200.00 31 252 84 0.850 2000.000 0.000 0.850 3000.000 0.000 0.220
93 1550.00 1200.00 37 279 86 0.850 2000.000 0.000 0.850 3000.000 0.000 0.220
94 1566.67 1200.00 27 270 86 0.850 2000.000 0.000 0.850 3000.000 0.000 0.220
95 1583.34 1200.00 29 285 86 0.850 2000.000 0.000 0.850 3000.000 0.000 0.220
96 1600.00 1200.00 36 277 74 0.850 2000.000 0.000 0.850 3000.000 0.000 0.220
97 1616.67 1200.00 26 256 53 0.850 2000.000 0.000 0.850 3000.000 0.000 0.220
98 1633.34 1200.00 31 230 39 0.850 2000.000 0.000 0.850 3000.000 0.000 0.220
99 1650.00 1200.00 41 236 33 0.850 2000.000 0.000 0.850 3000.000 0.000 0.220
100 1666.67 1200.00 22 257 46 0.850 2000.000 0.000 0.850 3000.000 0.000 0.220
101 1683.34 1200.00 31 208 39 0.850 2000.000 0.000 0.850 3000.000 0.000 0.220
102 1700.00 1200.00 19 229 35 0.850 2000.000 0.000 0.850 3000.000 0.000 0.220
103 1716.67 1200.00 28 219 47 0.850 2000.000 0.000 0.850 3000.000 0.000 0.220
104 1733.34 1200.00 24 209 59 0.850 2000.000 0.000 0.850 3000.000 0.000 0.220
105 1750.00 1200.00 18 204 53 0.850 2000.000 0.000 0.850 3000.000 0.000 0.220
106 1766.67 1200.00 18 218 66 0.850 2000.000 0.000 0.850 3000.000 0.000 0.220
107 1783.34 1200.00 20 215 74 0.850 2000.000 0.000 0.850 3000.000 0.000 0.220
108 1800.00 1200.00 24 239 70 0.850 2000.000 0.000 0.850 3000.000 0.000 0.220
109 1816.67 1200.00 31 240 94 0.850 2000.000 0.000 0.850 3000.000 0.000 0.220
110 1833.34 1200.00 28 236 68 0.850 2000.000 0.000 0.850 3000.000 0.000 0.220
111 1850.00 1200.00 27 285 88 0.850 2000.000 0.000 0.850 3000.000 0.000 0.220
112 1866.67 1200.00 18 314 102 0.850 2000.000 0.000 0.850 3000.000 0.000 0.220
113 1883.34 1200.00 30 289 94 0.850 2000.000 0.000 0.850 3000.000 0.000 0.220
114 1900.00 1200.00 32 297 91 0.850 2000.000 0.000 0.850 3000.000 0.000 0.220
115 1916.67 1200.00 21 310 82 0.850 2000.000 0.000 0.850 3000.000 0.000 0.220
116 1933.34 1200.00 30 268 94 0.850 2000.000 0.000 0.850 3000.000 0.000 0.220
117 1950.00 1200.00 14 277 85 0.850 2000.000 0.000 0.850 3000.000 0.000 0.220
118 1966.67 1200.00 13 258 71 0.850 2000.000 0.000 0.850 3000.000 0.000 0.220
119 1983.34 1200.00 19 238 77 0.850 2000.000 0.000 0.850 3000.000 0.000 0.220
