# BinNR microsec tot-time (s)  O-Beam H-beam AUX Ampl1(V) f1(Hz) phase1(deg) Ampl1(V) f1(Hz) phase1(deg) chi(pos)
0 0.00 1200.00 45 239 79 0.850 2000.000 0.000 0.850 3000.000 0.000 1.219
1 16.67 1200.00 38 258 67 0.850 2000.000 0.000 0.850 3000.000 0.000 1.219
2 33.33 1200.00 30 275 100 0.850 2000.000 0.000 0.850 3000.000 0.000 1.219
3 50.00 1200.00 41 293 79 0.850 2000.000 0.000 0.850 3000.000 0.000 1.219
4 66.67 1200.00 32 306 81 0.850 2000.000 0.000 0.850 3000.000 0.000 1.219
5 83.33 1200.00 37 268 68 0.850 2000.000 0.000 0.850 3000.000 0.000 1.219
6 100.00 1200.00 35 294 85 0.850 2000.000 0.000 0.850 3000.000 0.000 1.219
7 116.67 1200.00 24 278 85 0.850 2000.000 0.000 0.850 3000.000 0.000 1.219
8 133.33 1200.00 22 278 60 0.850 2000.000 0.000 0.850 3000.000 0.000 1.219
9 150.00 1200.00 16 274 76 0.850 2000.000 0.000 0.850 3000.000 0.000 1.219
10 166.67 1200.00 29 277 75 0.850 2000.000 0.000 0.850 3000.000 0.000 1.219
11 183.33 1200.00 26 264 80 0.850 2000.000 0.000 0.850 3000.000 0.000 1.219
12 200.00 1200.00 22 257 61 0.850 2000.000 0.000 0.850 3000.000 0.000 1.219
13 216.67 1200.00 22 244 79 0.850 2000.000 0.000 0.850 3000.000 0.000 1.219
14 233.33 1200.00 23 239 87 0.850 2000.000 0.000 0.850 3000.000 0.000 1.219
15 250.00 1200.00 27 245 65 0.850 2000.000 0.000 0.850 3000.000 0.000 1.219
16 266.67 1200.00 26 223 66 0.850 2000.000 0.000 0.850 3000.000 0.000 1.219
17 283.33 1200.00 26 239 95 0.850 2000.000 0.000 0.850 3000.000 0.000 1.219
18 300.00 1200.00 26 219 93 0.850 2000.000 0.000 0.850 3000.000 0.000 1.219
19 316.67 1200.00 44 238 97 0.850 2000.000 0.000 0.850 3000.000 0.000 1.219
20 333.33 1200.00 25 240 92 0.850 2000.000 0.000 0.850 3000.000 0.000 1.219
21 350.00 1200.00 31 257 88 0.850 2000.000 0.000 0.850 3000.000 0.000 1.219
22 366.67 1200.00 39 241 74 0.850 2000.000 0.000 0.850 3000.000 0.000 1.219
23 383.33 1200.00 44 227 63 0.850 2000.000 0.000 0.850 3000.000 0.000 1.219
24 400.00 1200.00 47 273 60 0.850 2000.000 0.000 0.850 3000.000 0.000 1.219
25 416.67 1200.00 34 225 69 0.850 2000.000 0.000 0.850 3000.000 0.000 1.219
26 433.33 1200.00 31 237 72 0.850 2000.000 0.000 0.850 3000.000 0.000 1.219
27 450.00 1200.00 41 247 50 0.850 2000.000 0.000 0.850 3000.000 0.000 1.219
28 466.67 1200.00 31 241 53 0.850 2000.000 0.000 0.850 3000.000 0.000 1.219
29 483.33 1200.00 36 245 47 0.850 2000.000 0.000 0.850 3000.000 0.000 1.219
30 500.00 1200.00 23 233 48 0.850 2000.000 0.000 0.850 3000.000 0.000 1.219
31 516.67 1200.00 31 225 48 0.850 2000.000 0.000 0.850 3000.000 0.000 1.219
32 533.33 1200.00 25 216 51 0.850 2000.000 0.000 0.850 3000.000 0.000 1.219
33 550.00 1200.00 36 244 58 0.850 2000.000 0.000 0.850 3000.000 0.000 1.219
34 566.67 1200.00 26 242 65 0.850 2000.000 0.000 0.850 3000.000 0.000 1.219
35 583.33 1200.00 18 226 72 0.850 2000.000 0.000 0.850 3000.000 0.000 1.219
36 600.00 1200.00 24 230 77 0.850 2000.000 0.000 0.850 3000.000 0.000 1.219
37 616.67 1200.00 26 265 109 0.850 2000.000 0.000 0.850 3000.000 0.000 1.219
38 633.33 1200.00 21 252 94 0.850 2000.000 0.000 0.850 3000.000 0.000 1.219
39 650.00 1200.00 31 278 93 0.850 2000.000 0.000 0.850 3000.000 0.000 1.219
40 666.67 1200.00 20 261 112 0.850 2000.000 0.000 0.850 3000.000 0.000 1.219
41 683.33 1200.00 40 295 93 0.850 2000.000 0.000 0.850 3000.000 0.000 1.219
42 700.00 1200.00 33 319 95 0.850 2000.000 0.000 0.850 3000.000 0.000 1.219
43 716.67 1200.00 33 318 93 0.850 2000.000 0.000 0.850 3000.000 0.000 1.219
44 733.33 1200.00 29 313 76 0.850 2000.000 0.000 0.850 3000.000 0.000 1.219
45 750.00 1200.00 38 321 106 0.850 2000.000 0.000 0.850 3000.000 0.000 1.219
46 766.67 1200.00 37 287 85 0.850 2000.000 0.000 0.850 3000.000 0.000 1.219
47 783.33 1200.00 28 278 72 0.850 2000.000 0.000 0.850 3000.000 0.000 1.219
48 800.00 1200.00 36 303 68 0.850 2000.000 0.000 0.850 3000.000 0.000 1.219
49 816.67 1200.00 36 230 65 0.850 2000.000 0.000 0.850 3000.000 0.000 1.219
50 833.34 1200.00 29 233 52 0.850 2000.000 0.000 0.850 3000.000 0.000 1.219
51 850.00 1200.00 30 194 47 0.850 2000.000 0.000 0.850 3000.000 0.000 1.219
52 866.67 1200.00 25 228 51 0.850 2000.000 0.000 0.850 3000.000 0.000 1.219
53 883.34 1200.00 31 181 39 0.850 2000.000 0.000 0.850 3000.000 0.000 1.219
54 900.00 1200.00 21 203 45 0.850 2000.000 0.000 0.850 3000.000 0.000 1.219
55 916.67 1200.00 34 197 43 0.850 2000.000 0.000 0.850 3000.000 0.000 1.219
56 933.34 1200.00 30 211 69 0.850 2000.000 0.000 0.850 3000.000 0.000 1.219
57 950.00 1200.00 35 211 55 0.850 2000.000 0.000 0.850 3000.000 0.000 1.219
58 966.67 1200.00 31 241 64 0.850 2000.000 0.000 0.850 3000.000 0.000 1.219
59 983.34 1200.00 37 214 84 0.850 2000.000 0.000 0.850 3000.000 0.000 1.219
60 1000.00 1200.00 34 228 78 0.850 2000.000 0.000 0.850 3000.000 0.000 1.219
61 1016.67 1200.00 36 236 73 0.850 2000.000 0.000 0.850 3000.000 0.000 1.219
62 1033.34 1200.00 36 252 77 0.850 2000.000 0.000 0.850 3000.000 0.000 1.219
63 1050.00 1200.00 35 284 84 0.850 2000.000 0.000 0.850 3000.000 0.000 1.219
64 1066.67 1200.00 37 289 100 0.850 2000.000 0.000 0.850 3000.000 0.000 1.219
65 1083.34 1200.00 35 279 91 0.850 2000.000 0.000 0.850 3000.000 0.000 1.219
66 1100.00 1200.00 42 282 79 0.850 2000.000 0.000 0.850 3000.000 0.000 1.219
67 1116.67 1200.00 37 305 71 0.850 2000.000 0.000 0.850 3000.000 0.000 1.219
68 1133.34 1200.00 19 274 82 0.850 2000.000 0.000 0.850 3000.000 0.000 1.219
69 1150.00 1200.00 22 273 58 0.850 2000.000 0.000 0.850 3000.000 0.000 1.219
70 1166.67 1200.00 21 282 78 0.850 2000.000 0.000 0.850 3000.000 0.000 1.219
71 1183.34 1200.00 28 256 63 0.850 2000.000 0.000 0.850 3000.000 0.000 1.219
72 1200.00 1200.00 24 278 69 0.850 2000.000 0.000 0.850 3000.000 0.000 1.219
73 1216.67 1200.00 16 243 84 0.850 2000.000 0.000 0.850 3000.000 0.000 1.219
74 1233.34 1200.00 15 280 78 0.850 2000.000 0.000 0.850 3000.000 0.000 1.219
75 1250.00 1200.00 20 235 73 0.850 2000.000 0.000 0.850 3000.000 0.000 1.219
76 1266.67 1200.00 18 201 76 0.850 2000.000 0.000 0.850 3000.000 0.000 1.219
77 1283.34 1200.00 19 239 80 0.850 2000.000 0.000 0.850 3000.000 0.000 1.219
78 1300.00 1200.00 25 232 85 0.850 2000.000 0.000 0.850 3000.000 0.000 1.219
79 1316.67 1200.00 24 253 93 0.850 2000.000 0.000 0.850 3000.000 0.000 1.219
80 1333.34 1200.00 40 237 93 0.850 2000.000 0.000 0.850 3000.000 0.000 1.219
81 1350.00 1200.00 44 234 82 0.850 2000.000 0.000 0.850 3000.000 0.000 1.219
82 1366.67 1200.00 49 246 83 0.850 2000.000 0.000 0.850 3000.000 0.000 1.219
83 1383.34 1200.00 35 257 94 0.850 2000.000 0.000 0.850 3000.000 0.000 1.219
84 1400.00 1200.00 44 238 67 0.850 2000.000 0.000 0.850 3000.000 0.000 1.219
85 1416.67 1200.00 35 264 76 0.850 2000.000 0.000 0.850 3000.000 0.000 1.219
86 1433.34 1200.00 46 246 61 0.850 2000.000 0.000 0.850 3000.000 0.000 1.219
87 1450.00 1200.00 45 226 49 0.850 2000.000 0.000 0.850 3000.000 0.000 1.219
88 1466.67 1200.00 34 238 48 0.850 2000.000 0.000 0.850 3000.000 0.000 1.219
89 1483.34 1200.00 33 253 44 0.850 2000.000 0.000 0.850 3000.000 0.000 1.219
90 1500.00 1200.00 29 228 44 0.850 2000.000 0.000 0.850 3000.000 0.000 1.219
91 1516.67 1200.00 32 265 41 0.850 2000.000 0.000 0.850 3000.000 0.000 1.219
92 1533.34 1200.00 22 209 43 0.850 2000.000 0.000 0.850 3000.000 0.000 1.219
93 1550.00 1200.00 32 233 60 0.850 2000.000 0.000 0.850 3000.000 0.000 1.219
94 1566.67 1200.00 17 231 54 0.850 2000.000 0.000 0.850 3000.000 0.000 1.219
95 1583.34 1200.00 19 257 84 0.850 2000.000 0.000 0.850 3000.000 0.000 1.219
96 1600.00 1200.00 21 238 78 0.850 2000.000 0.000 0.850 3000.000 0.000 1.219
97 1616.67 1200.00 16 245 94 0.850 2000.000 0.000 0.850 3000.000 0.000 1.219
98 1633.34 1200.00 27 244 88 0.850 2000.000 0.000 0.850 3000.000 0.000 1.219
99 1650.00 1200.00 14 267 105 0.850 2000.000 0.000 0.850 3000.000 0.000 1.219
100 1666.67 1200.00 23 256 120 0.850 2000.000 0.000 0.850 3000.000 0.000 1.219
101 1683.34 1200.00 34 293 88 0.850 2000.000 0.000 0.850 3000.000 0.000 1.219
102 1700.00 1200.00 22 289 94 0.850 2000.000 0.000 0.850 3000.000 0.000 1.219
103 1716.67 1200.00 30 315 113 0.850 2000.000 0.000 0.850 3000.000 0.000 1.219
104 1733.34 1200.00 26 283 106 0.850 2000.000 0.000 0.850 3000.000 0.000 1.219
105 1750.00 1200.00 32 292 93 0.850 2000.000 0.000 0.850 3000.000 0.000 1.219
106 1766.67 1200.00 29 309 95 0.850 2000.000 0.000 0.850 3000.000 0.000 1.219
107 1783.34 1200.00 34 278 72 0.850 2000.000 0.000 0.850 3000.000 0.000 1.219
108 1800.00 1200.00 35 270 68 0.850 2000.000 0.000 0.850 3000.000 0.000 1.219
109 1816.67 1200.00 24 243 73 0.850 2000.000 0.000 0.850 3000.000 0.000 1.219
110 1833.34 1200.00 33 222 43 0.850 2000.000 0.000 0.850 3000.000 0.000 1.219
111 1850.00 1200.00 28 237 40 0.850 2000.000 0.000 0.850 3000.000 0.000 1.219
112 1866.67 1200.00 37 217 50 0.850 2000.000 0.000 0.850 3000.000 0.000 1.219
113 1883.34 1200.00 30 192 54 0.850 2000.000 0.000 0.850 3000.000 0.000 1.219
114 1900.00 1200.00 42 212 43 0.850 2000.000 0.000 0.850 3000.000 0.000 1.219
115 1916.67 1200.00 38 199 43 0.850 2000.000 0.000 0.850 3000.000 0.000 1.219
116 1933.34 1200.00 41 200 63 0.850 2000.000 0.000 0.850 3000.000 0.000 1.219
117 1950.00 1200.00 30 223 51 0.850 2000.000 0.000 0.850 3000.000 0.000 1.219
118 1966.67 1200.00 29 226 82 0.850 2000.000 0.000 0.850 3000.000 0.000 1.219
119 1983.34 1200.00 35 248 61 0.850 2000.000 0.000 0.850 3000.000 0.000 1.219
