# BinNR microsec tot-time (s)  O-Beam H-beam AUX Ampl(V) f(Hz) phase(deg) chi(pos)
0 0.00 1200.00 186 806 3 5.155 2000.000 0.000 -0.802
1 25.00 1200.00 221 790 3 5.155 2000.000 0.000 -0.802
2 50.00 1200.00 196 697 4 5.155 2000.000 0.000 -0.802
3 75.00 1200.00 229 608 4 5.155 2000.000 0.000 -0.802
4 100.00 1200.00 193 591 5 5.155 2000.000 0.000 -0.802
5 125.00 1200.00 257 685 1 5.155 2000.000 0.000 -0.802
6 150.00 1200.00 389 708 1 5.155 2000.000 0.000 -0.802
7 175.00 1200.00 448 705 2 5.155 2000.000 0.000 -0.802
8 200.00 1200.00 461 682 2 5.155 2000.000 0.000 -0.802
9 225.00 1200.00 403 684 4 5.155 2000.000 0.000 -0.802
10 250.00 1200.00 392 606 1 5.155 2000.000 0.000 -0.802
11 275.00 1200.00 322 590 1 5.155 2000.000 0.000 -0.802
12 300.00 1200.00 316 615 3 5.155 2000.000 0.000 -0.802
13 325.00 1200.00 322 652 1 5.155 2000.000 0.000 -0.802
14 350.00 1200.00 371 760 1 5.155 2000.000 0.000 -0.802
15 375.00 1200.00 411 853 1 5.155 2000.000 0.000 -0.802
16 400.00 1200.00 444 875 3 5.155 2000.000 0.000 -0.802
17 425.00 1200.00 392 853 4 5.155 2000.000 0.000 -0.802
18 450.00 1200.00 329 854 1 5.155 2000.000 0.000 -0.802
19 475.00 1200.00 240 807 4 5.155 2000.000 0.000 -0.802
20 500.00 1200.00 200 842 2 5.155 2000.000 0.000 -0.802
21 525.00 1200.00 179 724 3 5.155 2000.000 0.000 -0.802
22 550.00 1200.00 201 672 1 5.155 2000.000 0.000 -0.802
23 575.00 1200.00 219 587 4 5.155 2000.000 0.000 -0.802
24 600.00 1200.00 205 635 3 5.155 2000.000 0.000 -0.802
25 625.00 1200.00 273 647 3 5.155 2000.000 0.000 -0.802
26 650.00 1200.00 354 725 3 5.155 2000.000 0.000 -0.802
27 675.00 1200.00 466 707 2 5.155 2000.000 0.000 -0.802
28 700.00 1200.00 443 724 2 5.155 2000.000 0.000 -0.802
29 725.00 1200.00 439 678 1 5.155 2000.000 0.000 -0.802
30 750.00 1200.00 362 708 3 5.155 2000.000 0.000 -0.802
31 775.00 1200.00 377 536 3 5.155 2000.000 0.000 -0.802
32 800.00 1200.00 313 662 2 5.155 2000.000 0.000 -0.802
33 825.00 1200.00 301 740 1 5.155 2000.000 0.000 -0.802
34 850.00 1200.00 371 819 0 5.155 2000.000 0.000 -0.802
35 875.00 1200.00 406 841 0 5.155 2000.000 0.000 -0.802
36 900.00 1200.00 454 896 4 5.155 2000.000 0.000 -0.802
37 925.00 1200.00 396 878 2 5.155 2000.000 0.000 -0.802
38 950.00 1200.00 304 855 2 5.155 2000.000 0.000 -0.802
39 975.00 1200.00 211 827 5 5.155 2000.000 0.000 -0.802
