# BinNR microsec tot-time (s)  O-Beam AUX Ampl(V) f(Hz) phase(deg) chi(pos)
0 0.00 1200.00 104 114 2.000 10000.000 0.000 -1.307
1 3.00 1200.00 206 236 2.000 10000.000 0.000 -1.307
2 6.00 1200.00 201 240 2.000 10000.000 0.000 -1.307
3 9.00 1200.00 181 239 2.000 10000.000 0.000 -1.307
4 12.00 1200.00 194 218 2.000 10000.000 0.000 -1.307
5 15.00 1200.00 188 209 2.000 10000.000 0.000 -1.307
6 18.00 1200.00 187 271 2.000 10000.000 0.000 -1.307
7 21.00 1200.00 164 236 2.000 10000.000 0.000 -1.307
8 24.00 1200.00 176 242 2.000 10000.000 0.000 -1.307
9 27.00 1200.00 177 269 2.000 10000.000 0.000 -1.307
10 30.00 1200.00 168 222 2.000 10000.000 0.000 -1.307
11 33.00 1200.00 179 268 2.000 10000.000 0.000 -1.307
12 36.00 1200.00 213 270 2.000 10000.000 0.000 -1.307
13 39.00 1200.00 209 339 2.000 10000.000 0.000 -1.307
14 42.00 1200.00 226 342 2.000 10000.000 0.000 -1.307
15 45.00 1200.00 236 393 2.000 10000.000 0.000 -1.307
16 48.00 1200.00 223 472 2.000 10000.000 0.000 -1.307
17 51.00 1200.00 273 552 2.000 10000.000 0.000 -1.307
18 54.00 1200.00 245 601 2.000 10000.000 0.000 -1.307
19 57.00 1200.00 297 553 2.000 10000.000 0.000 -1.307
20 60.00 1200.00 293 692 2.000 10000.000 0.000 -1.307
21 63.00 1200.00 305 706 2.000 10000.000 0.000 -1.307
22 66.00 1200.00 307 729 2.000 10000.000 0.000 -1.307
23 69.00 1200.00 305 742 2.000 10000.000 0.000 -1.307
24 72.00 1200.00 333 741 2.000 10000.000 0.000 -1.307
25 75.00 1200.00 272 688 2.000 10000.000 0.000 -1.307
26 78.00 1200.00 288 654 2.000 10000.000 0.000 -1.307
27 81.00 1200.00 313 624 2.000 10000.000 0.000 -1.307
28 84.00 1200.00 273 548 2.000 10000.000 0.000 -1.307
29 87.00 1200.00 274 488 2.000 10000.000 0.000 -1.307
30 90.00 1200.00 247 452 2.000 10000.000 0.000 -1.307
31 93.00 1200.00 232 361 2.000 10000.000 0.000 -1.307
32 96.00 1200.00 218 293 2.000 10000.000 0.000 -1.307
33 99.00 1200.00 218 302 2.000 10000.000 0.000 -1.307
34 102.00 1200.00 207 247 2.000 10000.000 0.000 -1.307
35 105.00 1200.00 176 243 2.000 10000.000 0.000 -1.307
36 108.00 1200.00 182 214 2.000 10000.000 0.000 -1.307
37 111.00 1200.00 186 226 2.000 10000.000 0.000 -1.307
38 114.00 1200.00 180 237 2.000 10000.000 0.000 -1.307
39 117.00 1200.00 171 246 2.000 10000.000 0.000 -1.307
40 120.00 1200.00 187 258 2.000 10000.000 0.000 -1.307
41 123.00 1200.00 182 254 2.000 10000.000 0.000 -1.307
42 126.00 1200.00 181 282 2.000 10000.000 0.000 -1.307
43 129.00 1200.00 205 215 2.000 10000.000 0.000 -1.307
44 132.00 1200.00 154 271 2.000 10000.000 0.000 -1.307
45 135.00 1200.00 202 281 2.000 10000.000 0.000 -1.307
46 138.00 1200.00 219 312 2.000 10000.000 0.000 -1.307
47 141.00 1200.00 211 362 2.000 10000.000 0.000 -1.307
48 144.00 1200.00 223 387 2.000 10000.000 0.000 -1.307
49 147.00 1200.00 222 430 2.000 10000.000 0.000 -1.307
50 150.00 1200.00 269 528 2.000 10000.000 0.000 -1.307
51 153.00 1200.00 261 644 2.000 10000.000 0.000 -1.307
52 156.00 1200.00 279 636 2.000 10000.000 0.000 -1.307
53 159.00 1200.00 275 654 2.000 10000.000 0.000 -1.307
54 162.00 1200.00 314 697 2.000 10000.000 0.000 -1.307
55 165.00 1200.00 312 692 2.000 10000.000 0.000 -1.307
56 168.00 1200.00 325 703 2.000 10000.000 0.000 -1.307
57 171.00 1200.00 279 688 2.000 10000.000 0.000 -1.307
58 174.00 1200.00 324 687 2.000 10000.000 0.000 -1.307
59 177.00 1200.00 271 669 2.000 10000.000 0.000 -1.307
60 180.00 1200.00 285 598 2.000 10000.000 0.000 -1.307
61 183.00 1200.00 319 548 2.000 10000.000 0.000 -1.307
62 186.00 1200.00 297 477 2.000 10000.000 0.000 -1.307
63 189.00 1200.00 254 416 2.000 10000.000 0.000 -1.307
64 192.00 1200.00 260 380 2.000 10000.000 0.000 -1.307
65 195.00 1200.00 243 314 2.000 10000.000 0.000 -1.307
66 198.00 1200.00 210 272 2.000 10000.000 0.000 -1.307
67 201.00 1200.00 211 286 2.000 10000.000 0.000 -1.307
68 204.00 1200.00 219 242 2.000 10000.000 0.000 -1.307
69 207.00 1200.00 209 249 2.000 10000.000 0.000 -1.307
70 210.00 1200.00 193 228 2.000 10000.000 0.000 -1.307
71 213.00 1200.00 163 260 2.000 10000.000 0.000 -1.307
72 216.00 1200.00 188 227 2.000 10000.000 0.000 -1.307
73 219.00 1200.00 165 248 2.000 10000.000 0.000 -1.307
74 222.00 1200.00 170 254 2.000 10000.000 0.000 -1.307
75 225.00 1200.00 172 242 2.000 10000.000 0.000 -1.307
76 228.00 1200.00 168 251 2.000 10000.000 0.000 -1.307
77 231.00 1200.00 174 238 2.000 10000.000 0.000 -1.307
78 234.00 1200.00 195 251 2.000 10000.000 0.000 -1.307
79 237.00 1200.00 178 246 2.000 10000.000 0.000 -1.307
80 240.00 1200.00 212 309 2.000 10000.000 0.000 -1.307
81 243.00 1200.00 221 383 2.000 10000.000 0.000 -1.307
82 246.00 1200.00 202 426 2.000 10000.000 0.000 -1.307
83 249.00 1200.00 246 482 2.000 10000.000 0.000 -1.307
84 252.00 1200.00 292 517 2.000 10000.000 0.000 -1.307
85 255.00 1200.00 256 584 2.000 10000.000 0.000 -1.307
86 258.00 1200.00 310 661 2.000 10000.000 0.000 -1.307
87 261.00 1200.00 281 680 2.000 10000.000 0.000 -1.307
88 264.00 1200.00 292 761 2.000 10000.000 0.000 -1.307
89 267.00 1200.00 270 742 2.000 10000.000 0.000 -1.307
90 270.00 1200.00 309 714 2.000 10000.000 0.000 -1.307
91 273.00 1200.00 318 722 2.000 10000.000 0.000 -1.307
92 276.00 1200.00 295 663 2.000 10000.000 0.000 -1.307
93 279.00 1200.00 325 671 2.000 10000.000 0.000 -1.307
94 282.00 1200.00 299 564 2.000 10000.000 0.000 -1.307
95 285.00 1200.00 260 489 2.000 10000.000 0.000 -1.307
96 288.00 1200.00 255 425 2.000 10000.000 0.000 -1.307
97 291.00 1200.00 238 398 2.000 10000.000 0.000 -1.307
98 294.00 1200.00 253 330 2.000 10000.000 0.000 -1.307
99 297.00 1200.00 247 263 2.000 10000.000 0.000 -1.307
100 300.00 1200.00 190 232 2.000 10000.000 0.000 -1.307
