# BinNR microsec tot-time (s)  O-Beam AUX Ampl(V) f(Hz) phase(deg) chi(pos)
0 0.00 1200.00 76 209 2.000 10000.000 0.000 1.099
1 3.00 1200.00 167 425 2.000 10000.000 0.000 1.099
2 6.00 1200.00 162 469 2.000 10000.000 0.000 1.099
3 9.00 1200.00 169 553 2.000 10000.000 0.000 1.099
4 12.00 1200.00 161 521 2.000 10000.000 0.000 1.099
5 15.00 1200.00 196 509 2.000 10000.000 0.000 1.099
6 18.00 1200.00 202 544 2.000 10000.000 0.000 1.099
7 21.00 1200.00 179 511 2.000 10000.000 0.000 1.099
8 24.00 1200.00 194 508 2.000 10000.000 0.000 1.099
9 27.00 1200.00 191 467 2.000 10000.000 0.000 1.099
10 30.00 1200.00 156 461 2.000 10000.000 0.000 1.099
11 33.00 1200.00 178 432 2.000 10000.000 0.000 1.099
12 36.00 1200.00 146 352 2.000 10000.000 0.000 1.099
13 39.00 1200.00 167 333 2.000 10000.000 0.000 1.099
14 42.00 1200.00 156 294 2.000 10000.000 0.000 1.099
15 45.00 1200.00 143 265 2.000 10000.000 0.000 1.099
16 48.00 1200.00 120 232 2.000 10000.000 0.000 1.099
17 51.00 1200.00 139 207 2.000 10000.000 0.000 1.099
18 54.00 1200.00 127 177 2.000 10000.000 0.000 1.099
19 57.00 1200.00 136 235 2.000 10000.000 0.000 1.099
20 60.00 1200.00 151 207 2.000 10000.000 0.000 1.099
21 63.00 1200.00 134 243 2.000 10000.000 0.000 1.099
22 66.00 1200.00 166 245 2.000 10000.000 0.000 1.099
23 69.00 1200.00 144 234 2.000 10000.000 0.000 1.099
24 72.00 1200.00 149 222 2.000 10000.000 0.000 1.099
25 75.00 1200.00 167 224 2.000 10000.000 0.000 1.099
26 78.00 1200.00 156 232 2.000 10000.000 0.000 1.099
27 81.00 1200.00 163 188 2.000 10000.000 0.000 1.099
28 84.00 1200.00 175 231 2.000 10000.000 0.000 1.099
29 87.00 1200.00 135 246 2.000 10000.000 0.000 1.099
30 90.00 1200.00 150 278 2.000 10000.000 0.000 1.099
31 93.00 1200.00 152 281 2.000 10000.000 0.000 1.099
32 96.00 1200.00 132 347 2.000 10000.000 0.000 1.099
33 99.00 1200.00 166 361 2.000 10000.000 0.000 1.099
34 102.00 1200.00 148 454 2.000 10000.000 0.000 1.099
35 105.00 1200.00 152 469 2.000 10000.000 0.000 1.099
36 108.00 1200.00 154 506 2.000 10000.000 0.000 1.099
37 111.00 1200.00 164 555 2.000 10000.000 0.000 1.099
38 114.00 1200.00 187 536 2.000 10000.000 0.000 1.099
39 117.00 1200.00 203 520 2.000 10000.000 0.000 1.099
40 120.00 1200.00 196 526 2.000 10000.000 0.000 1.099
41 123.00 1200.00 186 544 2.000 10000.000 0.000 1.099
42 126.00 1200.00 186 542 2.000 10000.000 0.000 1.099
43 129.00 1200.00 177 453 2.000 10000.000 0.000 1.099
44 132.00 1200.00 189 433 2.000 10000.000 0.000 1.099
45 135.00 1200.00 150 390 2.000 10000.000 0.000 1.099
46 138.00 1200.00 155 366 2.000 10000.000 0.000 1.099
47 141.00 1200.00 137 313 2.000 10000.000 0.000 1.099
48 144.00 1200.00 135 264 2.000 10000.000 0.000 1.099
49 147.00 1200.00 180 235 2.000 10000.000 0.000 1.099
50 150.00 1200.00 143 218 2.000 10000.000 0.000 1.099
51 153.00 1200.00 127 225 2.000 10000.000 0.000 1.099
52 156.00 1200.00 140 226 2.000 10000.000 0.000 1.099
53 159.00 1200.00 154 218 2.000 10000.000 0.000 1.099
54 162.00 1200.00 128 216 2.000 10000.000 0.000 1.099
55 165.00 1200.00 127 215 2.000 10000.000 0.000 1.099
56 168.00 1200.00 145 218 2.000 10000.000 0.000 1.099
57 171.00 1200.00 131 220 2.000 10000.000 0.000 1.099
58 174.00 1200.00 146 224 2.000 10000.000 0.000 1.099
59 177.00 1200.00 152 232 2.000 10000.000 0.000 1.099
60 180.00 1200.00 148 222 2.000 10000.000 0.000 1.099
61 183.00 1200.00 141 230 2.000 10000.000 0.000 1.099
62 186.00 1200.00 159 226 2.000 10000.000 0.000 1.099
63 189.00 1200.00 124 268 2.000 10000.000 0.000 1.099
64 192.00 1200.00 154 287 2.000 10000.000 0.000 1.099
65 195.00 1200.00 127 335 2.000 10000.000 0.000 1.099
66 198.00 1200.00 150 351 2.000 10000.000 0.000 1.099
67 201.00 1200.00 187 407 2.000 10000.000 0.000 1.099
68 204.00 1200.00 153 437 2.000 10000.000 0.000 1.099
69 207.00 1200.00 169 460 2.000 10000.000 0.000 1.099
70 210.00 1200.00 188 549 2.000 10000.000 0.000 1.099
71 213.00 1200.00 187 559 2.000 10000.000 0.000 1.099
72 216.00 1200.00 233 550 2.000 10000.000 0.000 1.099
73 219.00 1200.00 166 522 2.000 10000.000 0.000 1.099
74 222.00 1200.00 192 515 2.000 10000.000 0.000 1.099
75 225.00 1200.00 158 538 2.000 10000.000 0.000 1.099
76 228.00 1200.00 158 473 2.000 10000.000 0.000 1.099
77 231.00 1200.00 154 426 2.000 10000.000 0.000 1.099
78 234.00 1200.00 166 388 2.000 10000.000 0.000 1.099
79 237.00 1200.00 166 375 2.000 10000.000 0.000 1.099
80 240.00 1200.00 155 335 2.000 10000.000 0.000 1.099
81 243.00 1200.00 185 293 2.000 10000.000 0.000 1.099
82 246.00 1200.00 133 253 2.000 10000.000 0.000 1.099
83 249.00 1200.00 117 246 2.000 10000.000 0.000 1.099
84 252.00 1200.00 144 223 2.000 10000.000 0.000 1.099
85 255.00 1200.00 143 182 2.000 10000.000 0.000 1.099
86 258.00 1200.00 144 229 2.000 10000.000 0.000 1.099
87 261.00 1200.00 155 244 2.000 10000.000 0.000 1.099
88 264.00 1200.00 151 184 2.000 10000.000 0.000 1.099
89 267.00 1200.00 154 249 2.000 10000.000 0.000 1.099
90 270.00 1200.00 167 235 2.000 10000.000 0.000 1.099
91 273.00 1200.00 149 212 2.000 10000.000 0.000 1.099
92 276.00 1200.00 163 204 2.000 10000.000 0.000 1.099
93 279.00 1200.00 150 214 2.000 10000.000 0.000 1.099
94 282.00 1200.00 168 209 2.000 10000.000 0.000 1.099
95 285.00 1200.00 144 220 2.000 10000.000 0.000 1.099
96 288.00 1200.00 151 236 2.000 10000.000 0.000 1.099
97 291.00 1200.00 146 279 2.000 10000.000 0.000 1.099
98 294.00 1200.00 153 321 2.000 10000.000 0.000 1.099
99 297.00 1200.00 147 332 2.000 10000.000 0.000 1.099
100 300.00 1200.00 121 297 2.000 10000.000 0.000 1.099
