# BinNR microsec tot-time (s)  O-Beam AUX Ampl(V) f(Hz) phase(deg) chi(pos)
0 0.00 1200.00 107 106 2.000 10000.000 0.000 0.494
1 3.00 1200.00 206 235 2.000 10000.000 0.000 0.494
2 6.00 1200.00 190 262 2.000 10000.000 0.000 0.494
3 9.00 1200.00 170 221 2.000 10000.000 0.000 0.494
4 12.00 1200.00 214 199 2.000 10000.000 0.000 0.494
5 15.00 1200.00 173 210 2.000 10000.000 0.000 0.494
6 18.00 1200.00 185 236 2.000 10000.000 0.000 0.494
7 21.00 1200.00 174 232 2.000 10000.000 0.000 0.494
8 24.00 1200.00 155 196 2.000 10000.000 0.000 0.494
9 27.00 1200.00 188 220 2.000 10000.000 0.000 0.494
10 30.00 1200.00 171 244 2.000 10000.000 0.000 0.494
11 33.00 1200.00 167 244 2.000 10000.000 0.000 0.494
12 36.00 1200.00 220 303 2.000 10000.000 0.000 0.494
13 39.00 1200.00 165 285 2.000 10000.000 0.000 0.494
14 42.00 1200.00 227 337 2.000 10000.000 0.000 0.494
15 45.00 1200.00 215 330 2.000 10000.000 0.000 0.494
16 48.00 1200.00 247 401 2.000 10000.000 0.000 0.494
17 51.00 1200.00 243 467 2.000 10000.000 0.000 0.494
18 54.00 1200.00 264 556 2.000 10000.000 0.000 0.494
19 57.00 1200.00 278 627 2.000 10000.000 0.000 0.494
20 60.00 1200.00 259 613 2.000 10000.000 0.000 0.494
21 63.00 1200.00 282 662 2.000 10000.000 0.000 0.494
22 66.00 1200.00 285 610 2.000 10000.000 0.000 0.494
23 69.00 1200.00 312 630 2.000 10000.000 0.000 0.494
24 72.00 1200.00 291 611 2.000 10000.000 0.000 0.494
25 75.00 1200.00 295 593 2.000 10000.000 0.000 0.494
26 78.00 1200.00 281 607 2.000 10000.000 0.000 0.494
27 81.00 1200.00 298 598 2.000 10000.000 0.000 0.494
28 84.00 1200.00 262 517 2.000 10000.000 0.000 0.494
29 87.00 1200.00 253 420 2.000 10000.000 0.000 0.494
30 90.00 1200.00 217 384 2.000 10000.000 0.000 0.494
31 93.00 1200.00 226 341 2.000 10000.000 0.000 0.494
32 96.00 1200.00 237 291 2.000 10000.000 0.000 0.494
33 99.00 1200.00 211 238 2.000 10000.000 0.000 0.494
34 102.00 1200.00 197 243 2.000 10000.000 0.000 0.494
35 105.00 1200.00 178 218 2.000 10000.000 0.000 0.494
36 108.00 1200.00 205 196 2.000 10000.000 0.000 0.494
37 111.00 1200.00 190 211 2.000 10000.000 0.000 0.494
38 114.00 1200.00 200 219 2.000 10000.000 0.000 0.494
39 117.00 1200.00 154 195 2.000 10000.000 0.000 0.494
40 120.00 1200.00 179 226 2.000 10000.000 0.000 0.494
41 123.00 1200.00 171 210 2.000 10000.000 0.000 0.494
42 126.00 1200.00 159 203 2.000 10000.000 0.000 0.494
43 129.00 1200.00 166 224 2.000 10000.000 0.000 0.494
44 132.00 1200.00 201 240 2.000 10000.000 0.000 0.494
45 135.00 1200.00 191 247 2.000 10000.000 0.000 0.494
46 138.00 1200.00 184 265 2.000 10000.000 0.000 0.494
47 141.00 1200.00 214 306 2.000 10000.000 0.000 0.494
48 144.00 1200.00 220 357 2.000 10000.000 0.000 0.494
49 147.00 1200.00 223 461 2.000 10000.000 0.000 0.494
50 150.00 1200.00 281 520 2.000 10000.000 0.000 0.494
51 153.00 1200.00 278 504 2.000 10000.000 0.000 0.494
52 156.00 1200.00 265 584 2.000 10000.000 0.000 0.494
53 159.00 1200.00 269 610 2.000 10000.000 0.000 0.494
54 162.00 1200.00 292 609 2.000 10000.000 0.000 0.494
55 165.00 1200.00 292 582 2.000 10000.000 0.000 0.494
56 168.00 1200.00 304 636 2.000 10000.000 0.000 0.494
57 171.00 1200.00 277 639 2.000 10000.000 0.000 0.494
58 174.00 1200.00 284 669 2.000 10000.000 0.000 0.494
59 177.00 1200.00 275 599 2.000 10000.000 0.000 0.494
60 180.00 1200.00 288 597 2.000 10000.000 0.000 0.494
61 183.00 1200.00 250 507 2.000 10000.000 0.000 0.494
62 186.00 1200.00 288 448 2.000 10000.000 0.000 0.494
63 189.00 1200.00 260 407 2.000 10000.000 0.000 0.494
64 192.00 1200.00 233 377 2.000 10000.000 0.000 0.494
65 195.00 1200.00 228 298 2.000 10000.000 0.000 0.494
66 198.00 1200.00 219 249 2.000 10000.000 0.000 0.494
67 201.00 1200.00 210 265 2.000 10000.000 0.000 0.494
68 204.00 1200.00 183 243 2.000 10000.000 0.000 0.494
69 207.00 1200.00 205 215 2.000 10000.000 0.000 0.494
70 210.00 1200.00 174 220 2.000 10000.000 0.000 0.494
71 213.00 1200.00 170 198 2.000 10000.000 0.000 0.494
72 216.00 1200.00 187 213 2.000 10000.000 0.000 0.494
73 219.00 1200.00 161 217 2.000 10000.000 0.000 0.494
74 222.00 1200.00 163 216 2.000 10000.000 0.000 0.494
75 225.00 1200.00 162 206 2.000 10000.000 0.000 0.494
76 228.00 1200.00 165 259 2.000 10000.000 0.000 0.494
77 231.00 1200.00 186 243 2.000 10000.000 0.000 0.494
78 234.00 1200.00 183 231 2.000 10000.000 0.000 0.494
79 237.00 1200.00 193 237 2.000 10000.000 0.000 0.494
80 240.00 1200.00 207 305 2.000 10000.000 0.000 0.494
81 243.00 1200.00 235 387 2.000 10000.000 0.000 0.494
82 246.00 1200.00 230 406 2.000 10000.000 0.000 0.494
83 249.00 1200.00 233 482 2.000 10000.000 0.000 0.494
84 252.00 1200.00 239 516 2.000 10000.000 0.000 0.494
85 255.00 1200.00 283 513 2.000 10000.000 0.000 0.494
86 258.00 1200.00 252 601 2.000 10000.000 0.000 0.494
87 261.00 1200.00 287 556 2.000 10000.000 0.000 0.494
88 264.00 1200.00 288 652 2.000 10000.000 0.000 0.494
89 267.00 1200.00 260 693 2.000 10000.000 0.000 0.494
90 270.00 1200.00 323 663 2.000 10000.000 0.000 0.494
91 273.00 1200.00 298 618 2.000 10000.000 0.000 0.494
92 276.00 1200.00 315 636 2.000 10000.000 0.000 0.494
93 279.00 1200.00 292 603 2.000 10000.000 0.000 0.494
94 282.00 1200.00 278 546 2.000 10000.000 0.000 0.494
95 285.00 1200.00 255 506 2.000 10000.000 0.000 0.494
96 288.00 1200.00 242 436 2.000 10000.000 0.000 0.494
97 291.00 1200.00 239 377 2.000 10000.000 0.000 0.494
98 294.00 1200.00 241 339 2.000 10000.000 0.000 0.494
99 297.00 1200.00 251 255 2.000 10000.000 0.000 0.494
100 300.00 1200.00 161 202 2.000 10000.000 0.000 0.494
