# BinNR microsec tot-time (s)  O-Beam AUX Ampl(V) f(Hz) phase(deg) chi(pos)
0 0.00 1200.00 73 98 2.000 10000.000 0.000 0.890
1 3.00 1200.00 147 264 2.000 10000.000 0.000 0.890
2 6.00 1200.00 146 303 2.000 10000.000 0.000 0.890
3 9.00 1200.00 119 320 2.000 10000.000 0.000 0.890
4 12.00 1200.00 135 337 2.000 10000.000 0.000 0.890
5 15.00 1200.00 157 338 2.000 10000.000 0.000 0.890
6 18.00 1200.00 153 360 2.000 10000.000 0.000 0.890
7 21.00 1200.00 152 332 2.000 10000.000 0.000 0.890
8 24.00 1200.00 168 307 2.000 10000.000 0.000 0.890
9 27.00 1200.00 168 302 2.000 10000.000 0.000 0.890
10 30.00 1200.00 153 249 2.000 10000.000 0.000 0.890
11 33.00 1200.00 124 247 2.000 10000.000 0.000 0.890
12 36.00 1200.00 130 198 2.000 10000.000 0.000 0.890
13 39.00 1200.00 135 180 2.000 10000.000 0.000 0.890
14 42.00 1200.00 116 151 2.000 10000.000 0.000 0.890
15 45.00 1200.00 151 159 2.000 10000.000 0.000 0.890
16 48.00 1200.00 153 156 2.000 10000.000 0.000 0.890
17 51.00 1200.00 138 152 2.000 10000.000 0.000 0.890
18 54.00 1200.00 175 177 2.000 10000.000 0.000 0.890
19 57.00 1200.00 141 222 2.000 10000.000 0.000 0.890
20 60.00 1200.00 170 209 2.000 10000.000 0.000 0.890
21 63.00 1200.00 180 242 2.000 10000.000 0.000 0.890
22 66.00 1200.00 183 249 2.000 10000.000 0.000 0.890
23 69.00 1200.00 185 242 2.000 10000.000 0.000 0.890
24 72.00 1200.00 190 238 2.000 10000.000 0.000 0.890
25 75.00 1200.00 179 226 2.000 10000.000 0.000 0.890
26 78.00 1200.00 163 240 2.000 10000.000 0.000 0.890
27 81.00 1200.00 165 192 2.000 10000.000 0.000 0.890
28 84.00 1200.00 142 187 2.000 10000.000 0.000 0.890
29 87.00 1200.00 136 170 2.000 10000.000 0.000 0.890
30 90.00 1200.00 172 144 2.000 10000.000 0.000 0.890
31 93.00 1200.00 143 141 2.000 10000.000 0.000 0.890
32 96.00 1200.00 152 164 2.000 10000.000 0.000 0.890
33 99.00 1200.00 129 205 2.000 10000.000 0.000 0.890
34 102.00 1200.00 146 276 2.000 10000.000 0.000 0.890
35 105.00 1200.00 126 276 2.000 10000.000 0.000 0.890
36 108.00 1200.00 136 309 2.000 10000.000 0.000 0.890
37 111.00 1200.00 125 352 2.000 10000.000 0.000 0.890
38 114.00 1200.00 153 365 2.000 10000.000 0.000 0.890
39 117.00 1200.00 143 350 2.000 10000.000 0.000 0.890
40 120.00 1200.00 153 393 2.000 10000.000 0.000 0.890
41 123.00 1200.00 145 306 2.000 10000.000 0.000 0.890
42 126.00 1200.00 142 318 2.000 10000.000 0.000 0.890
43 129.00 1200.00 131 288 2.000 10000.000 0.000 0.890
44 132.00 1200.00 136 271 2.000 10000.000 0.000 0.890
45 135.00 1200.00 131 236 2.000 10000.000 0.000 0.890
46 138.00 1200.00 130 220 2.000 10000.000 0.000 0.890
47 141.00 1200.00 125 171 2.000 10000.000 0.000 0.890
48 144.00 1200.00 144 198 2.000 10000.000 0.000 0.890
49 147.00 1200.00 122 161 2.000 10000.000 0.000 0.890
50 150.00 1200.00 143 177 2.000 10000.000 0.000 0.890
51 153.00 1200.00 137 185 2.000 10000.000 0.000 0.890
52 156.00 1200.00 144 239 2.000 10000.000 0.000 0.890
53 159.00 1200.00 163 230 2.000 10000.000 0.000 0.890
54 162.00 1200.00 159 244 2.000 10000.000 0.000 0.890
55 165.00 1200.00 195 263 2.000 10000.000 0.000 0.890
56 168.00 1200.00 172 280 2.000 10000.000 0.000 0.890
57 171.00 1200.00 165 272 2.000 10000.000 0.000 0.890
58 174.00 1200.00 167 259 2.000 10000.000 0.000 0.890
59 177.00 1200.00 160 197 2.000 10000.000 0.000 0.890
60 180.00 1200.00 156 212 2.000 10000.000 0.000 0.890
61 183.00 1200.00 151 171 2.000 10000.000 0.000 0.890
62 186.00 1200.00 146 160 2.000 10000.000 0.000 0.890
63 189.00 1200.00 140 164 2.000 10000.000 0.000 0.890
64 192.00 1200.00 149 147 2.000 10000.000 0.000 0.890
65 195.00 1200.00 141 166 2.000 10000.000 0.000 0.890
66 198.00 1200.00 123 185 2.000 10000.000 0.000 0.890
67 201.00 1200.00 124 228 2.000 10000.000 0.000 0.890
68 204.00 1200.00 130 282 2.000 10000.000 0.000 0.890
69 207.00 1200.00 159 284 2.000 10000.000 0.000 0.890
70 210.00 1200.00 137 333 2.000 10000.000 0.000 0.890
71 213.00 1200.00 158 346 2.000 10000.000 0.000 0.890
72 216.00 1200.00 137 376 2.000 10000.000 0.000 0.890
73 219.00 1200.00 136 331 2.000 10000.000 0.000 0.890
74 222.00 1200.00 151 354 2.000 10000.000 0.000 0.890
75 225.00 1200.00 142 323 2.000 10000.000 0.000 0.890
76 228.00 1200.00 141 314 2.000 10000.000 0.000 0.890
77 231.00 1200.00 144 246 2.000 10000.000 0.000 0.890
78 234.00 1200.00 132 245 2.000 10000.000 0.000 0.890
79 237.00 1200.00 131 169 2.000 10000.000 0.000 0.890
80 240.00 1200.00 127 195 2.000 10000.000 0.000 0.890
81 243.00 1200.00 118 163 2.000 10000.000 0.000 0.890
82 246.00 1200.00 134 161 2.000 10000.000 0.000 0.890
83 249.00 1200.00 143 147 2.000 10000.000 0.000 0.890
84 252.00 1200.00 140 179 2.000 10000.000 0.000 0.890
85 255.00 1200.00 150 188 2.000 10000.000 0.000 0.890
86 258.00 1200.00 169 224 2.000 10000.000 0.000 0.890
87 261.00 1200.00 140 245 2.000 10000.000 0.000 0.890
88 264.00 1200.00 180 248 2.000 10000.000 0.000 0.890
89 267.00 1200.00 169 282 2.000 10000.000 0.000 0.890
90 270.00 1200.00 180 240 2.000 10000.000 0.000 0.890
91 273.00 1200.00 166 253 2.000 10000.000 0.000 0.890
92 276.00 1200.00 168 234 2.000 10000.000 0.000 0.890
93 279.00 1200.00 162 216 2.000 10000.000 0.000 0.890
94 282.00 1200.00 182 178 2.000 10000.000 0.000 0.890
95 285.00 1200.00 155 188 2.000 10000.000 0.000 0.890
96 288.00 1200.00 165 158 2.000 10000.000 0.000 0.890
97 291.00 1200.00 143 148 2.000 10000.000 0.000 0.890
98 294.00 1200.00 122 148 2.000 10000.000 0.000 0.890
99 297.00 1200.00 142 190 2.000 10000.000 0.000 0.890
100 300.00 1200.00 122 207 2.000 10000.000 0.000 0.890
