# BinNR microsec tot-time (s)  O-Beam AUX Ampl(V) f(Hz) phase(deg) chi(pos)
0 0.00 1200.01 166 383 2.000 10000.000 0.000 0.088
1 3.00 1200.01 321 739 2.000 10000.000 0.000 0.088
2 6.00 1200.01 336 677 2.000 10000.000 0.000 0.088
3 9.00 1200.01 323 652 2.000 10000.000 0.000 0.088
4 12.00 1200.01 294 581 2.000 10000.000 0.000 0.088
5 15.00 1200.01 309 591 2.000 10000.000 0.000 0.088
6 18.00 1200.01 310 690 2.000 10000.000 0.000 0.088
7 21.00 1200.01 336 682 2.000 10000.000 0.000 0.088
8 24.00 1200.01 342 601 2.000 10000.000 0.000 0.088
9 27.00 1200.01 320 627 2.000 10000.000 0.000 0.088
10 30.00 1200.01 307 747 2.000 10000.000 0.000 0.088
11 33.00 1200.01 337 769 2.000 10000.000 0.000 0.088
12 36.00 1200.01 357 817 2.000 10000.000 0.000 0.088
13 39.00 1200.01 341 844 2.000 10000.000 0.000 0.088
14 42.00 1200.01 378 908 2.000 10000.000 0.000 0.088
15 45.00 1200.01 352 938 2.000 10000.000 0.000 0.088
16 48.00 1200.01 360 984 2.000 10000.000 0.000 0.088
17 51.00 1200.01 381 961 2.000 10000.000 0.000 0.088
18 54.00 1200.01 339 995 2.000 10000.000 0.000 0.088
19 57.00 1200.01 380 986 2.000 10000.000 0.000 0.088
20 60.00 1200.01 321 1004 2.000 10000.000 0.000 0.088
21 63.00 1200.01 372 927 2.000 10000.000 0.000 0.088
22 66.00 1200.01 336 898 2.000 10000.000 0.000 0.088
23 69.00 1200.01 348 933 2.000 10000.000 0.000 0.088
24 72.00 1200.01 341 999 2.000 10000.000 0.000 0.088
25 75.00 1200.01 334 979 2.000 10000.000 0.000 0.088
26 78.00 1200.01 369 943 2.000 10000.000 0.000 0.088
27 81.00 1200.01 347 996 2.000 10000.000 0.000 0.088
28 84.00 1200.01 373 1023 2.000 10000.000 0.000 0.088
29 87.00 1200.01 314 892 2.000 10000.000 0.000 0.088
30 90.00 1200.01 340 897 2.000 10000.000 0.000 0.088
31 93.00 1200.01 334 869 2.000 10000.000 0.000 0.088
32 96.00 1200.01 352 859 2.000 10000.000 0.000 0.088
33 99.00 1200.01 311 829 2.000 10000.000 0.000 0.088
34 102.00 1200.01 343 743 2.000 10000.000 0.000 0.088
35 105.00 1200.01 315 664 2.000 10000.000 0.000 0.088
36 108.00 1200.01 297 673 2.000 10000.000 0.000 0.088
37 111.00 1200.01 326 656 2.000 10000.000 0.000 0.088
38 114.00 1200.01 319 625 2.000 10000.000 0.000 0.088
39 117.00 1200.01 321 629 2.000 10000.000 0.000 0.088
40 120.00 1200.01 344 626 2.000 10000.000 0.000 0.088
41 123.00 1200.01 277 645 2.000 10000.000 0.000 0.088
42 126.00 1200.01 295 641 2.000 10000.000 0.000 0.088
43 129.00 1200.01 322 676 2.000 10000.000 0.000 0.088
44 132.00 1200.01 354 756 2.000 10000.000 0.000 0.088
45 135.00 1200.01 330 763 2.000 10000.000 0.000 0.088
46 138.00 1200.01 371 872 2.000 10000.000 0.000 0.088
47 141.00 1200.01 322 884 2.000 10000.000 0.000 0.088
48 144.00 1200.01 332 923 2.000 10000.000 0.000 0.088
49 147.00 1200.01 327 949 2.000 10000.000 0.000 0.088
50 150.00 1200.01 345 950 2.000 10000.000 0.000 0.088
51 153.00 1200.01 348 967 2.000 10000.000 0.000 0.088
52 156.00 1200.01 329 943 2.000 10000.000 0.000 0.088
53 159.00 1200.01 314 921 2.000 10000.000 0.000 0.088
54 162.00 1200.01 356 971 2.000 10000.000 0.000 0.088
55 165.00 1200.01 372 955 2.000 10000.000 0.000 0.088
56 168.00 1200.01 372 945 2.000 10000.000 0.000 0.088
57 171.00 1200.01 305 928 2.000 10000.000 0.000 0.088
58 174.00 1200.01 358 937 2.000 10000.000 0.000 0.088
59 177.00 1200.01 355 969 2.000 10000.000 0.000 0.088
60 180.00 1200.01 379 979 2.000 10000.000 0.000 0.088
61 183.00 1200.01 378 969 2.000 10000.000 0.000 0.088
62 186.00 1200.01 381 945 2.000 10000.000 0.000 0.088
63 189.00 1200.01 354 969 2.000 10000.000 0.000 0.088
64 192.00 1200.01 358 890 2.000 10000.000 0.000 0.088
65 195.00 1200.01 333 811 2.000 10000.000 0.000 0.088
66 198.00 1200.01 337 826 2.000 10000.000 0.000 0.088
67 201.00 1200.01 318 768 2.000 10000.000 0.000 0.088
68 204.00 1200.01 329 718 2.000 10000.000 0.000 0.088
69 207.00 1200.01 330 678 2.000 10000.000 0.000 0.088
70 210.00 1200.01 309 643 2.000 10000.000 0.000 0.088
71 213.00 1200.01 325 643 2.000 10000.000 0.000 0.088
72 216.00 1200.01 319 596 2.000 10000.000 0.000 0.088
73 219.00 1200.01 279 617 2.000 10000.000 0.000 0.088
74 222.00 1200.01 338 581 2.000 10000.000 0.000 0.088
75 225.00 1200.01 295 646 2.000 10000.000 0.000 0.088
76 228.00 1200.01 345 671 2.000 10000.000 0.000 0.088
77 231.00 1200.01 300 730 2.000 10000.000 0.000 0.088
78 234.00 1200.01 350 768 2.000 10000.000 0.000 0.088
79 237.00 1200.01 314 774 2.000 10000.000 0.000 0.088
80 240.00 1200.01 340 865 2.000 10000.000 0.000 0.088
81 243.00 1200.01 366 899 2.000 10000.000 0.000 0.088
82 246.00 1200.01 370 989 2.000 10000.000 0.000 0.088
83 249.00 1200.01 328 933 2.000 10000.000 0.000 0.088
84 252.00 1200.01 410 1033 2.000 10000.000 0.000 0.088
85 255.00 1200.01 360 959 2.000 10000.000 0.000 0.088
86 258.00 1200.01 414 952 2.000 10000.000 0.000 0.088
87 261.00 1200.01 344 883 2.000 10000.000 0.000 0.088
88 264.00 1200.01 373 927 2.000 10000.000 0.000 0.088
89 267.00 1200.01 360 919 2.000 10000.000 0.000 0.088
90 270.00 1200.01 360 979 2.000 10000.000 0.000 0.088
91 273.00 1200.01 366 957 2.000 10000.000 0.000 0.088
92 276.00 1200.01 363 912 2.000 10000.000 0.000 0.088
93 279.00 1200.01 354 942 2.000 10000.000 0.000 0.088
94 282.00 1200.01 341 980 2.000 10000.000 0.000 0.088
95 285.00 1200.01 332 935 2.000 10000.000 0.000 0.088
96 288.00 1200.01 358 962 2.000 10000.000 0.000 0.088
97 291.00 1200.01 351 894 2.000 10000.000 0.000 0.088
98 294.00 1200.01 343 837 2.000 10000.000 0.000 0.088
99 297.00 1200.01 316 808 2.000 10000.000 0.000 0.088
100 300.00 1200.01 281 633 2.000 10000.000 0.000 0.088
