# BinNR microsec tot-time (s)  O-Beam AUX Ampl(V) f(Hz) phase(deg) chi(pos)
0 0.00 1200.01 187 540 2.000 10000.000 0.000 -0.099
1 3.00 1200.01 396 925 2.000 10000.000 0.000 -0.099
2 6.00 1200.01 329 930 2.000 10000.000 0.000 -0.099
3 9.00 1200.01 343 876 2.000 10000.000 0.000 -0.099
4 12.00 1200.01 377 888 2.000 10000.000 0.000 -0.099
5 15.00 1200.01 351 869 2.000 10000.000 0.000 -0.099
6 18.00 1200.01 368 898 2.000 10000.000 0.000 -0.099
7 21.00 1200.01 346 850 2.000 10000.000 0.000 -0.099
8 24.00 1200.01 354 923 2.000 10000.000 0.000 -0.099
9 27.00 1200.01 390 956 2.000 10000.000 0.000 -0.099
10 30.00 1200.01 389 957 2.000 10000.000 0.000 -0.099
11 33.00 1200.01 338 1005 2.000 10000.000 0.000 -0.099
12 36.00 1200.01 357 997 2.000 10000.000 0.000 -0.099
13 39.00 1200.01 385 969 2.000 10000.000 0.000 -0.099
14 42.00 1200.01 385 1027 2.000 10000.000 0.000 -0.099
15 45.00 1200.01 393 1048 2.000 10000.000 0.000 -0.099
16 48.00 1200.01 373 1050 2.000 10000.000 0.000 -0.099
17 51.00 1200.01 358 975 2.000 10000.000 0.000 -0.099
18 54.00 1200.01 394 989 2.000 10000.000 0.000 -0.099
19 57.00 1200.01 345 928 2.000 10000.000 0.000 -0.099
20 60.00 1200.01 323 960 2.000 10000.000 0.000 -0.099
21 63.00 1200.01 330 905 2.000 10000.000 0.000 -0.099
22 66.00 1200.01 304 914 2.000 10000.000 0.000 -0.099
23 69.00 1200.01 312 870 2.000 10000.000 0.000 -0.099
24 72.00 1200.01 345 957 2.000 10000.000 0.000 -0.099
25 75.00 1200.01 295 926 2.000 10000.000 0.000 -0.099
26 78.00 1200.01 322 955 2.000 10000.000 0.000 -0.099
27 81.00 1200.01 348 965 2.000 10000.000 0.000 -0.099
28 84.00 1200.01 375 970 2.000 10000.000 0.000 -0.099
29 87.00 1200.01 339 1040 2.000 10000.000 0.000 -0.099
30 90.00 1200.01 367 1043 2.000 10000.000 0.000 -0.099
31 93.00 1200.01 392 1034 2.000 10000.000 0.000 -0.099
32 96.00 1200.01 395 1030 2.000 10000.000 0.000 -0.099
33 99.00 1200.01 379 969 2.000 10000.000 0.000 -0.099
34 102.00 1200.01 350 960 2.000 10000.000 0.000 -0.099
35 105.00 1200.01 372 920 2.000 10000.000 0.000 -0.099
36 108.00 1200.01 357 886 2.000 10000.000 0.000 -0.099
37 111.00 1200.01 370 898 2.000 10000.000 0.000 -0.099
38 114.00 1200.01 322 891 2.000 10000.000 0.000 -0.099
39 117.00 1200.01 382 885 2.000 10000.000 0.000 -0.099
40 120.00 1200.01 373 856 2.000 10000.000 0.000 -0.099
41 123.00 1200.01 355 826 2.000 10000.000 0.000 -0.099
42 126.00 1200.01 347 894 2.000 10000.000 0.000 -0.099
43 129.00 1200.01 380 917 2.000 10000.000 0.000 -0.099
44 132.00 1200.01 427 953 2.000 10000.000 0.000 -0.099
45 135.00 1200.01 365 979 2.000 10000.000 0.000 -0.099
46 138.00 1200.01 378 1025 2.000 10000.000 0.000 -0.099
47 141.00 1200.01 382 1000 2.000 10000.000 0.000 -0.099
48 144.00 1200.01 379 1110 2.000 10000.000 0.000 -0.099
49 147.00 1200.01 343 1060 2.000 10000.000 0.000 -0.099
50 150.00 1200.01 332 1008 2.000 10000.000 0.000 -0.099
51 153.00 1200.01 338 973 2.000 10000.000 0.000 -0.099
52 156.00 1200.01 367 937 2.000 10000.000 0.000 -0.099
53 159.00 1200.01 309 905 2.000 10000.000 0.000 -0.099
54 162.00 1200.01 352 884 2.000 10000.000 0.000 -0.099
55 165.00 1200.01 329 896 2.000 10000.000 0.000 -0.099
56 168.00 1200.01 321 864 2.000 10000.000 0.000 -0.099
57 171.00 1200.01 325 863 2.000 10000.000 0.000 -0.099
58 174.00 1200.01 334 912 2.000 10000.000 0.000 -0.099
59 177.00 1200.01 294 937 2.000 10000.000 0.000 -0.099
60 180.00 1200.01 304 1021 2.000 10000.000 0.000 -0.099
61 183.00 1200.01 383 1019 2.000 10000.000 0.000 -0.099
62 186.00 1200.01 326 1038 2.000 10000.000 0.000 -0.099
63 189.00 1200.01 343 1041 2.000 10000.000 0.000 -0.099
64 192.00 1200.01 360 1103 2.000 10000.000 0.000 -0.099
65 195.00 1200.01 344 984 2.000 10000.000 0.000 -0.099
66 198.00 1200.01 348 1045 2.000 10000.000 0.000 -0.099
67 201.00 1200.01 352 1017 2.000 10000.000 0.000 -0.099
68 204.00 1200.01 388 877 2.000 10000.000 0.000 -0.099
69 207.00 1200.01 352 842 2.000 10000.000 0.000 -0.099
70 210.00 1200.01 379 899 2.000 10000.000 0.000 -0.099
71 213.00 1200.01 366 888 2.000 10000.000 0.000 -0.099
72 216.00 1200.01 383 855 2.000 10000.000 0.000 -0.099
73 219.00 1200.01 360 887 2.000 10000.000 0.000 -0.099
74 222.00 1200.01 388 832 2.000 10000.000 0.000 -0.099
75 225.00 1200.01 362 876 2.000 10000.000 0.000 -0.099
76 228.00 1200.01 377 908 2.000 10000.000 0.000 -0.099
77 231.00 1200.01 376 941 2.000 10000.000 0.000 -0.099
78 234.00 1200.01 375 1003 2.000 10000.000 0.000 -0.099
79 237.00 1200.01 364 1015 2.000 10000.000 0.000 -0.099
80 240.00 1200.01 401 1078 2.000 10000.000 0.000 -0.099
81 243.00 1200.01 387 1044 2.000 10000.000 0.000 -0.099
82 246.00 1200.01 377 946 2.000 10000.000 0.000 -0.099
83 249.00 1200.01 367 1009 2.000 10000.000 0.000 -0.099
84 252.00 1200.01 371 1035 2.000 10000.000 0.000 -0.099
85 255.00 1200.01 343 906 2.000 10000.000 0.000 -0.099
86 258.00 1200.01 360 883 2.000 10000.000 0.000 -0.099
87 261.00 1200.01 343 875 2.000 10000.000 0.000 -0.099
88 264.00 1200.01 310 912 2.000 10000.000 0.000 -0.099
89 267.00 1200.01 318 874 2.000 10000.000 0.000 -0.099
90 270.00 1200.01 337 917 2.000 10000.000 0.000 -0.099
91 273.00 1200.01 313 871 2.000 10000.000 0.000 -0.099
92 276.00 1200.01 319 915 2.000 10000.000 0.000 -0.099
93 279.00 1200.01 307 909 2.000 10000.000 0.000 -0.099
94 282.00 1200.01 359 1009 2.000 10000.000 0.000 -0.099
95 285.00 1200.01 323 1012 2.000 10000.000 0.000 -0.099
96 288.00 1200.01 357 1050 2.000 10000.000 0.000 -0.099
97 291.00 1200.01 327 1056 2.000 10000.000 0.000 -0.099
98 294.00 1200.01 376 1073 2.000 10000.000 0.000 -0.099
99 297.00 1200.01 364 1036 2.000 10000.000 0.000 -0.099
100 300.00 1200.01 346 860 2.000 10000.000 0.000 -0.099
