# BinNR microsec tot-time (s)  O-Beam H-beam AUX Ampl(V) f(Hz) phase(deg) chi(pos)
0 0.00 1200.00 412 561 4 5.155 2000.000 0.000 -1.505
1 25.00 1200.00 417 537 1 5.155 2000.000 0.000 -1.505
2 50.00 1200.00 378 708 2 5.155 2000.000 0.000 -1.505
3 75.00 1200.00 393 817 4 5.155 2000.000 0.000 -1.505
4 100.00 1200.00 454 883 2 5.155 2000.000 0.000 -1.505
5 125.00 1200.00 465 918 4 5.155 2000.000 0.000 -1.505
6 150.00 1200.00 473 902 0 5.155 2000.000 0.000 -1.505
7 175.00 1200.00 337 905 4 5.155 2000.000 0.000 -1.505
8 200.00 1200.00 229 866 3 5.155 2000.000 0.000 -1.505
9 225.00 1200.00 164 867 2 5.155 2000.000 0.000 -1.505
10 250.00 1200.00 145 892 3 5.155 2000.000 0.000 -1.505
11 275.00 1200.00 163 815 3 5.155 2000.000 0.000 -1.505
12 300.00 1200.00 173 671 1 5.155 2000.000 0.000 -1.505
13 325.00 1200.00 187 643 4 5.155 2000.000 0.000 -1.505
14 350.00 1200.00 156 543 3 5.155 2000.000 0.000 -1.505
15 375.00 1200.00 199 565 3 5.155 2000.000 0.000 -1.505
16 400.00 1200.00 283 586 3 5.155 2000.000 0.000 -1.505
17 425.00 1200.00 368 689 2 5.155 2000.000 0.000 -1.505
18 450.00 1200.00 490 606 4 5.155 2000.000 0.000 -1.505
19 475.00 1200.00 483 598 1 5.155 2000.000 0.000 -1.505
20 500.00 1200.00 444 574 1 5.155 2000.000 0.000 -1.505
21 525.00 1200.00 388 556 2 5.155 2000.000 0.000 -1.505
22 550.00 1200.00 391 647 4 5.155 2000.000 0.000 -1.505
23 575.00 1200.00 423 776 0 5.155 2000.000 0.000 -1.505
24 600.00 1200.00 480 906 4 5.155 2000.000 0.000 -1.505
25 625.00 1200.00 465 842 5 5.155 2000.000 0.000 -1.505
26 650.00 1200.00 463 853 0 5.155 2000.000 0.000 -1.505
27 675.00 1200.00 343 906 2 5.155 2000.000 0.000 -1.505
28 700.00 1200.00 225 842 4 5.155 2000.000 0.000 -1.505
29 725.00 1200.00 157 897 4 5.155 2000.000 0.000 -1.505
30 750.00 1200.00 175 968 3 5.155 2000.000 0.000 -1.505
31 775.00 1200.00 175 804 2 5.155 2000.000 0.000 -1.505
32 800.00 1200.00 168 712 1 5.155 2000.000 0.000 -1.505
33 825.00 1200.00 172 611 2 5.155 2000.000 0.000 -1.505
34 850.00 1200.00 151 528 4 5.155 2000.000 0.000 -1.505
35 875.00 1200.00 204 553 2 5.155 2000.000 0.000 -1.505
36 900.00 1200.00 285 577 2 5.155 2000.000 0.000 -1.505
37 925.00 1200.00 414 598 2 5.155 2000.000 0.000 -1.505
38 950.00 1200.00 493 645 8 5.155 2000.000 0.000 -1.505
39 975.00 1200.00 477 647 6 5.155 2000.000 0.000 -1.505
