# BinNR microsec tot-time (s)  O-Beam H-beam AUX Ampl(V) f(Hz) phase(deg) chi(pos)
0 0.00 1200.00 279 665 1 0.000 5.373 2000.000 0.791
1 25.00 1200.00 233 610 1 0.000 5.373 2000.000 0.791
2 50.00 1200.00 229 606 3 0.000 5.373 2000.000 0.791
3 75.00 1200.00 228 581 3 0.000 5.373 2000.000 0.791
4 100.00 1200.00 271 660 3 0.000 5.373 2000.000 0.791
5 125.00 1200.00 333 752 5 0.000 5.373 2000.000 0.791
6 150.00 1200.00 408 705 1 0.000 5.373 2000.000 0.791
7 175.00 1200.00 436 796 1 0.000 5.373 2000.000 0.791
8 200.00 1200.00 377 816 3 0.000 5.373 2000.000 0.791
9 225.00 1200.00 282 771 0 0.000 5.373 2000.000 0.791
10 250.00 1200.00 259 707 0 0.000 5.373 2000.000 0.791
11 275.00 1200.00 234 648 1 0.000 5.373 2000.000 0.791
12 300.00 1200.00 245 584 3 0.000 5.373 2000.000 0.791
13 325.00 1200.00 226 564 1 0.000 5.373 2000.000 0.791
14 350.00 1200.00 237 671 2 0.000 5.373 2000.000 0.791
15 375.00 1200.00 327 708 5 0.000 5.373 2000.000 0.791
16 400.00 1200.00 384 799 3 0.000 5.373 2000.000 0.791
17 425.00 1200.00 450 804 1 0.000 5.373 2000.000 0.791
18 450.00 1200.00 413 841 4 0.000 5.373 2000.000 0.791
19 475.00 1200.00 348 805 3 0.000 5.373 2000.000 0.791
20 500.00 1200.00 283 684 2 0.000 5.373 2000.000 0.791
21 525.00 1200.00 238 635 1 0.000 5.373 2000.000 0.791
22 550.00 1200.00 219 595 6 0.000 5.373 2000.000 0.791
23 575.00 1200.00 226 606 4 0.000 5.373 2000.000 0.791
24 600.00 1200.00 290 637 4 0.000 5.373 2000.000 0.791
25 625.00 1200.00 317 711 0 0.000 5.373 2000.000 0.791
26 650.00 1200.00 376 802 3 0.000 5.373 2000.000 0.791
27 675.00 1200.00 414 798 3 0.000 5.373 2000.000 0.791
28 700.00 1200.00 423 838 2 0.000 5.373 2000.000 0.791
29 725.00 1200.00 315 807 2 0.000 5.373 2000.000 0.791
30 750.00 1200.00 273 730 1 0.000 5.373 2000.000 0.791
31 775.00 1200.00 222 680 3 0.000 5.373 2000.000 0.791
32 800.00 1200.00 207 638 3 0.000 5.373 2000.000 0.791
33 825.00 1200.00 215 615 4 0.000 5.373 2000.000 0.791
34 850.00 1200.00 249 663 1 0.000 5.373 2000.000 0.791
35 875.00 1200.00 295 751 3 0.000 5.373 2000.000 0.791
36 900.00 1200.00 399 818 3 0.000 5.373 2000.000 0.791
37 925.00 1200.00 457 749 4 0.000 5.373 2000.000 0.791
38 950.00 1200.00 398 770 0 0.000 5.373 2000.000 0.791
39 975.00 1200.00 365 740 2 0.000 5.373 2000.000 0.791
