# BinNR microsec tot-time (s)  O-Beam H-beam AUX Ampl(V) f(Hz) phase(deg) chi(pos)
0 0.00 1200.00 451 590 1 0.000 5.373 2000.000 -0.648
1 25.00 1200.00 443 620 2 0.000 5.373 2000.000 -0.648
2 50.00 1200.00 439 744 4 0.000 5.373 2000.000 -0.648
3 75.00 1200.00 445 824 1 0.000 5.373 2000.000 -0.648
4 100.00 1200.00 492 850 1 0.000 5.373 2000.000 -0.648
5 125.00 1200.00 414 835 1 0.000 5.373 2000.000 -0.648
6 150.00 1200.00 404 864 1 0.000 5.373 2000.000 -0.648
7 175.00 1200.00 286 761 0 0.000 5.373 2000.000 -0.648
8 200.00 1200.00 203 804 2 0.000 5.373 2000.000 -0.648
9 225.00 1200.00 191 878 4 0.000 5.373 2000.000 -0.648
10 250.00 1200.00 188 898 4 0.000 5.373 2000.000 -0.648
11 275.00 1200.00 222 854 1 0.000 5.373 2000.000 -0.648
12 300.00 1200.00 232 772 2 0.000 5.373 2000.000 -0.648
13 325.00 1200.00 227 746 2 0.000 5.373 2000.000 -0.648
14 350.00 1200.00 184 602 3 0.000 5.373 2000.000 -0.648
15 375.00 1200.00 210 600 2 0.000 5.373 2000.000 -0.648
16 400.00 1200.00 178 544 5 0.000 5.373 2000.000 -0.648
17 425.00 1200.00 285 572 3 0.000 5.373 2000.000 -0.648
18 450.00 1200.00 370 627 4 0.000 5.373 2000.000 -0.648
19 475.00 1200.00 457 635 0 0.000 5.373 2000.000 -0.648
20 500.00 1200.00 443 599 2 0.000 5.373 2000.000 -0.648
21 525.00 1200.00 465 600 1 0.000 5.373 2000.000 -0.648
22 550.00 1200.00 419 715 2 0.000 5.373 2000.000 -0.648
23 575.00 1200.00 418 783 2 0.000 5.373 2000.000 -0.648
24 600.00 1200.00 459 870 4 0.000 5.373 2000.000 -0.648
25 625.00 1200.00 473 849 3 0.000 5.373 2000.000 -0.648
26 650.00 1200.00 388 847 3 0.000 5.373 2000.000 -0.648
27 675.00 1200.00 307 844 2 0.000 5.373 2000.000 -0.648
28 700.00 1200.00 201 823 3 0.000 5.373 2000.000 -0.648
29 725.00 1200.00 170 810 3 0.000 5.373 2000.000 -0.648
30 750.00 1200.00 174 833 2 0.000 5.373 2000.000 -0.648
31 775.00 1200.00 206 851 2 0.000 5.373 2000.000 -0.648
32 800.00 1200.00 232 828 6 0.000 5.373 2000.000 -0.648
33 825.00 1200.00 207 645 4 0.000 5.373 2000.000 -0.648
34 850.00 1200.00 170 615 5 0.000 5.373 2000.000 -0.648
35 875.00 1200.00 164 596 3 0.000 5.373 2000.000 -0.648
36 900.00 1200.00 199 567 2 0.000 5.373 2000.000 -0.648
37 925.00 1200.00 257 595 2 0.000 5.373 2000.000 -0.648
38 950.00 1200.00 409 561 2 0.000 5.373 2000.000 -0.648
39 975.00 1200.00 437 617 2 0.000 5.373 2000.000 -0.648
