# BinNR microsec tot-time (s)  O-Beam AUX Ampl_1(V) f_1(Hz) phase_1(deg) Ampl_2(V) f_2(Hz) phase_2(deg) chi(pos)
0 0.00 1500.00 318 836 0.000 0.000 0.000 1.000 10000.000 0.000 1.000
1 3.00 1500.00 640 1620 0.000 0.000 0.000 1.000 10000.000 0.000 1.000
2 6.00 1500.00 668 1609 0.000 0.000 0.000 1.000 10000.000 0.000 1.000
3 9.00 1500.00 591 1678 0.000 0.000 0.000 1.000 10000.000 0.000 1.000
4 12.00 1500.00 577 1679 0.000 0.000 0.000 1.000 10000.000 0.000 1.000
5 15.00 1500.00 557 1644 0.000 0.000 0.000 1.000 10000.000 0.000 1.000
6 18.00 1500.00 593 1732 0.000 0.000 0.000 1.000 10000.000 0.000 1.000
7 21.00 1500.00 624 1632 0.000 0.000 0.000 1.000 10000.000 0.000 1.000
8 24.00 1500.00 590 1630 0.000 0.000 0.000 1.000 10000.000 0.000 1.000
9 27.00 1500.00 582 1752 0.000 0.000 0.000 1.000 10000.000 0.000 1.000
10 30.00 1500.00 587 1780 0.000 0.000 0.000 1.000 10000.000 0.000 1.000
11 33.00 1500.00 619 1724 0.000 0.000 0.000 1.000 10000.000 0.000 1.000
12 36.00 1500.00 613 1747 0.000 0.000 0.000 1.000 10000.000 0.000 1.000
13 39.00 1500.00 684 1701 0.000 0.000 0.000 1.000 10000.000 0.000 1.000
14 42.00 1500.00 633 1714 0.000 0.000 0.000 1.000 10000.000 0.000 1.000
15 45.00 1500.00 613 1762 0.000 0.000 0.000 1.000 10000.000 0.000 1.000
16 48.00 1500.00 642 1781 0.000 0.000 0.000 1.000 10000.000 0.000 1.000
17 51.00 1500.00 651 1697 0.000 0.000 0.000 1.000 10000.000 0.000 1.000
18 54.00 1500.00 649 1754 0.000 0.000 0.000 1.000 10000.000 0.000 1.000
19 57.00 1500.00 583 1619 0.000 0.000 0.000 1.000 10000.000 0.000 1.000
20 60.00 1500.00 559 1707 0.000 0.000 0.000 1.000 10000.000 0.000 1.000
21 63.00 1500.00 565 1619 0.000 0.000 0.000 1.000 10000.000 0.000 1.000
22 66.00 1500.00 604 1722 0.000 0.000 0.000 1.000 10000.000 0.000 1.000
23 69.00 1500.00 597 1630 0.000 0.000 0.000 1.000 10000.000 0.000 1.000
24 72.00 1500.00 630 1677 0.000 0.000 0.000 1.000 10000.000 0.000 1.000
25 75.00 1500.00 598 1652 0.000 0.000 0.000 1.000 10000.000 0.000 1.000
26 78.00 1500.00 615 1678 0.000 0.000 0.000 1.000 10000.000 0.000 1.000
27 81.00 1500.00 628 1619 0.000 0.000 0.000 1.000 10000.000 0.000 1.000
28 84.00 1500.00 587 1729 0.000 0.000 0.000 1.000 10000.000 0.000 1.000
29 87.00 1500.00 596 1663 0.000 0.000 0.000 1.000 10000.000 0.000 1.000
30 90.00 1500.00 596 1744 0.000 0.000 0.000 1.000 10000.000 0.000 1.000
31 93.00 1500.00 600 1661 0.000 0.000 0.000 1.000 10000.000 0.000 1.000
32 96.00 1500.00 612 1773 0.000 0.000 0.000 1.000 10000.000 0.000 1.000
33 99.00 1500.00 615 1665 0.000 0.000 0.000 1.000 10000.000 0.000 1.000
34 102.00 1500.00 577 1825 0.000 0.000 0.000 1.000 10000.000 0.000 1.000
35 105.00 1500.00 600 1733 0.000 0.000 0.000 1.000 10000.000 0.000 1.000
36 108.00 1500.00 621 1679 0.000 0.000 0.000 1.000 10000.000 0.000 1.000
37 111.00 1500.00 601 1711 0.000 0.000 0.000 1.000 10000.000 0.000 1.000
38 114.00 1500.00 611 1790 0.000 0.000 0.000 1.000 10000.000 0.000 1.000
39 117.00 1500.00 610 1694 0.000 0.000 0.000 1.000 10000.000 0.000 1.000
40 120.00 1500.00 625 1661 0.000 0.000 0.000 1.000 10000.000 0.000 1.000
41 123.00 1500.00 601 1723 0.000 0.000 0.000 1.000 10000.000 0.000 1.000
42 126.00 1500.00 640 1707 0.000 0.000 0.000 1.000 10000.000 0.000 1.000
43 129.00 1500.00 586 1732 0.000 0.000 0.000 1.000 10000.000 0.000 1.000
44 132.00 1500.00 638 1694 0.000 0.000 0.000 1.000 10000.000 0.000 1.000
45 135.00 1500.00 607 1702 0.000 0.000 0.000 1.000 10000.000 0.000 1.000
46 138.00 1500.00 664 1721 0.000 0.000 0.000 1.000 10000.000 0.000 1.000
47 141.00 1500.00 602 1760 0.000 0.000 0.000 1.000 10000.000 0.000 1.000
48 144.00 1500.00 604 1864 0.000 0.000 0.000 1.000 10000.000 0.000 1.000
49 147.00 1500.00 592 1704 0.000 0.000 0.000 1.000 10000.000 0.000 1.000
50 150.00 1500.00 629 1754 0.000 0.000 0.000 1.000 10000.000 0.000 1.000
51 153.00 1500.00 594 1748 0.000 0.000 0.000 1.000 10000.000 0.000 1.000
52 156.00 1500.00 648 1736 0.000 0.000 0.000 1.000 10000.000 0.000 1.000
53 159.00 1500.00 623 1691 0.000 0.000 0.000 1.000 10000.000 0.000 1.000
54 162.00 1500.00 593 1710 0.000 0.000 0.000 1.000 10000.000 0.000 1.000
55 165.00 1500.00 627 1600 0.000 0.000 0.000 1.000 10000.000 0.000 1.000
56 168.00 1500.00 598 1777 0.000 0.000 0.000 1.000 10000.000 0.000 1.000
57 171.00 1500.00 573 1704 0.000 0.000 0.000 1.000 10000.000 0.000 1.000
58 174.00 1500.00 582 1691 0.000 0.000 0.000 1.000 10000.000 0.000 1.000
59 177.00 1500.00 570 1704 0.000 0.000 0.000 1.000 10000.000 0.000 1.000
60 180.00 1500.00 595 1659 0.000 0.000 0.000 1.000 10000.000 0.000 1.000
61 183.00 1500.00 576 1640 0.000 0.000 0.000 1.000 10000.000 0.000 1.000
62 186.00 1500.00 648 1711 0.000 0.000 0.000 1.000 10000.000 0.000 1.000
63 189.00 1500.00 625 1731 0.000 0.000 0.000 1.000 10000.000 0.000 1.000
64 192.00 1500.00 635 1730 0.000 0.000 0.000 1.000 10000.000 0.000 1.000
65 195.00 1500.00 614 1724 0.000 0.000 0.000 1.000 10000.000 0.000 1.000
66 198.00 1500.00 683 1697 0.000 0.000 0.000 1.000 10000.000 0.000 1.000
67 201.00 1500.00 634 1643 0.000 0.000 0.000 1.000 10000.000 0.000 1.000
68 204.00 1500.00 612 1770 0.000 0.000 0.000 1.000 10000.000 0.000 1.000
69 207.00 1500.00 562 1670 0.000 0.000 0.000 1.000 10000.000 0.000 1.000
70 210.00 1500.00 621 1739 0.000 0.000 0.000 1.000 10000.000 0.000 1.000
71 213.00 1500.00 596 1747 0.000 0.000 0.000 1.000 10000.000 0.000 1.000
72 216.00 1500.00 605 1720 0.000 0.000 0.000 1.000 10000.000 0.000 1.000
73 219.00 1500.00 639 1653 0.000 0.000 0.000 1.000 10000.000 0.000 1.000
74 222.00 1500.00 594 1768 0.000 0.000 0.000 1.000 10000.000 0.000 1.000
75 225.00 1500.00 623 1729 0.000 0.000 0.000 1.000 10000.000 0.000 1.000
76 228.00 1500.00 583 1747 0.000 0.000 0.000 1.000 10000.000 0.000 1.000
77 231.00 1500.00 592 1613 0.000 0.000 0.000 1.000 10000.000 0.000 1.000
78 234.00 1500.00 612 1731 0.000 0.000 0.000 1.000 10000.000 0.000 1.000
79 237.00 1500.00 630 1665 0.000 0.000 0.000 1.000 10000.000 0.000 1.000
80 240.00 1500.00 627 1779 0.000 0.000 0.000 1.000 10000.000 0.000 1.000
81 243.00 1500.00 604 1743 0.000 0.000 0.000 1.000 10000.000 0.000 1.000
82 246.00 1500.00 625 1715 0.000 0.000 0.000 1.000 10000.000 0.000 1.000
83 249.00 1500.00 630 1741 0.000 0.000 0.000 1.000 10000.000 0.000 1.000
84 252.00 1500.00 630 1684 0.000 0.000 0.000 1.000 10000.000 0.000 1.000
85 255.00 1500.00 580 1742 0.000 0.000 0.000 1.000 10000.000 0.000 1.000
86 258.00 1500.00 629 1764 0.000 0.000 0.000 1.000 10000.000 0.000 1.000
87 261.00 1500.00 621 1665 0.000 0.000 0.000 1.000 10000.000 0.000 1.000
88 264.00 1500.00 655 1682 0.000 0.000 0.000 1.000 10000.000 0.000 1.000
89 267.00 1500.00 594 1658 0.000 0.000 0.000 1.000 10000.000 0.000 1.000
90 270.00 1500.00 607 1693 0.000 0.000 0.000 1.000 10000.000 0.000 1.000
91 273.00 1500.00 605 1695 0.000 0.000 0.000 1.000 10000.000 0.000 1.000
92 276.00 1500.00 604 1712 0.000 0.000 0.000 1.000 10000.000 0.000 1.000
93 279.00 1500.00 609 1695 0.000 0.000 0.000 1.000 10000.000 0.000 1.000
94 282.00 1500.00 622 1673 0.000 0.000 0.000 1.000 10000.000 0.000 1.000
95 285.00 1500.00 607 1671 0.000 0.000 0.000 1.000 10000.000 0.000 1.000
96 288.00 1500.00 563 1667 0.000 0.000 0.000 1.000 10000.000 0.000 1.000
97 291.00 1500.00 598 1677 0.000 0.000 0.000 1.000 10000.000 0.000 1.000
98 294.00 1500.00 616 1664 0.000 0.000 0.000 1.000 10000.000 0.000 1.000
99 297.00 1500.00 581 1660 0.000 0.000 0.000 1.000 10000.000 0.000 1.000
100 300.00 1500.00 614 1790 0.000 0.000 0.000 1.000 10000.000 0.000 1.000
101 303.00 1500.00 608 1776 0.000 0.000 0.000 1.000 10000.000 0.000 1.000
102 306.00 1500.00 623 1709 0.000 0.000 0.000 1.000 10000.000 0.000 1.000
103 309.00 1500.00 589 1698 0.000 0.000 0.000 1.000 10000.000 0.000 1.000
104 312.00 1500.00 616 1732 0.000 0.000 0.000 1.000 10000.000 0.000 1.000
105 315.00 1500.00 609 1686 0.000 0.000 0.000 1.000 10000.000 0.000 1.000
106 318.00 1500.00 607 1641 0.000 0.000 0.000 1.000 10000.000 0.000 1.000
107 321.00 1500.00 604 1707 0.000 0.000 0.000 1.000 10000.000 0.000 1.000
108 324.00 1500.00 641 1780 0.000 0.000 0.000 1.000 10000.000 0.000 1.000
109 327.00 1500.00 618 1664 0.000 0.000 0.000 1.000 10000.000 0.000 1.000
110 330.00 1500.00 606 1711 0.000 0.000 0.000 1.000 10000.000 0.000 1.000
111 333.00 1500.00 601 1807 0.000 0.000 0.000 1.000 10000.000 0.000 1.000
112 336.00 1500.00 594 1766 0.000 0.000 0.000 1.000 10000.000 0.000 1.000
113 339.00 1500.00 641 1689 0.000 0.000 0.000 1.000 10000.000 0.000 1.000
114 342.00 1500.00 634 1787 0.000 0.000 0.000 1.000 10000.000 0.000 1.000
115 345.00 1500.00 612 1748 0.000 0.000 0.000 1.000 10000.000 0.000 1.000
116 348.00 1500.00 613 1826 0.000 0.000 0.000 1.000 10000.000 0.000 1.000
117 351.00 1500.00 643 1704 0.000 0.000 0.000 1.000 10000.000 0.000 1.000
118 354.00 1500.00 641 1722 0.000 0.000 0.000 1.000 10000.000 0.000 1.000
119 357.00 1500.00 632 1753 0.000 0.000 0.000 1.000 10000.000 0.000 1.000
120 360.00 1500.00 625 1765 0.000 0.000 0.000 1.000 10000.000 0.000 1.000
121 363.00 1500.00 597 1711 0.000 0.000 0.000 1.000 10000.000 0.000 1.000
122 366.00 1500.00 640 1731 0.000 0.000 0.000 1.000 10000.000 0.000 1.000
123 369.00 1500.00 585 1750 0.000 0.000 0.000 1.000 10000.000 0.000 1.000
124 372.00 1500.00 593 1698 0.000 0.000 0.000 1.000 10000.000 0.000 1.000
125 375.00 1500.00 567 1704 0.000 0.000 0.000 1.000 10000.000 0.000 1.000
126 378.00 1500.00 625 1687 0.000 0.000 0.000 1.000 10000.000 0.000 1.000
127 381.00 1500.00 621 1681 0.000 0.000 0.000 1.000 10000.000 0.000 1.000
128 384.00 1500.00 581 1732 0.000 0.000 0.000 1.000 10000.000 0.000 1.000
129 387.00 1500.00 614 1677 0.000 0.000 0.000 1.000 10000.000 0.000 1.000
130 390.00 1500.00 609 1703 0.000 0.000 0.000 1.000 10000.000 0.000 1.000
131 393.00 1500.00 608 1710 0.000 0.000 0.000 1.000 10000.000 0.000 1.000
132 396.00 1500.00 641 1704 0.000 0.000 0.000 1.000 10000.000 0.000 1.000
133 399.00 1500.00 606 1642 0.000 0.000 0.000 1.000 10000.000 0.000 1.000
134 402.00 1500.00 619 1760 0.000 0.000 0.000 1.000 10000.000 0.000 1.000
