# BinNR microsec tot-time (s)  O-Beam AUX Ampl_1(V) f_1(Hz) phase_1(deg) Ampl_2(V) f_2(Hz) phase_2(deg) chi(pos)
0 0.00 1500.01 513 1165 0.000 0.000 0.000 1.000 10000.000 0.000 0.154
1 3.00 1500.01 1031 2194 0.000 0.000 0.000 1.000 10000.000 0.000 0.154
2 6.00 1500.01 1025 2258 0.000 0.000 0.000 1.000 10000.000 0.000 0.154
3 9.00 1500.01 976 2308 0.000 0.000 0.000 1.000 10000.000 0.000 0.154
4 12.00 1500.01 1044 2327 0.000 0.000 0.000 1.000 10000.000 0.000 0.154
5 15.00 1500.01 975 2299 0.000 0.000 0.000 1.000 10000.000 0.000 0.154
6 18.00 1500.01 1016 2336 0.000 0.000 0.000 1.000 10000.000 0.000 0.154
7 21.00 1500.01 987 2284 0.000 0.000 0.000 1.000 10000.000 0.000 0.154
8 24.00 1500.01 1030 2342 0.000 0.000 0.000 1.000 10000.000 0.000 0.154
9 27.00 1500.01 1037 2202 0.000 0.000 0.000 1.000 10000.000 0.000 0.154
10 30.00 1500.01 971 2246 0.000 0.000 0.000 1.000 10000.000 0.000 0.154
11 33.00 1500.01 975 2160 0.000 0.000 0.000 1.000 10000.000 0.000 0.154
12 36.00 1500.01 1026 2325 0.000 0.000 0.000 1.000 10000.000 0.000 0.154
13 39.00 1500.01 961 2250 0.000 0.000 0.000 1.000 10000.000 0.000 0.154
14 42.00 1500.01 1023 2331 0.000 0.000 0.000 1.000 10000.000 0.000 0.154
15 45.00 1500.01 968 2298 0.000 0.000 0.000 1.000 10000.000 0.000 0.154
16 48.00 1500.01 985 2294 0.000 0.000 0.000 1.000 10000.000 0.000 0.154
17 51.00 1500.01 964 2251 0.000 0.000 0.000 1.000 10000.000 0.000 0.154
18 54.00 1500.01 1003 2316 0.000 0.000 0.000 1.000 10000.000 0.000 0.154
19 57.00 1500.01 1020 2272 0.000 0.000 0.000 1.000 10000.000 0.000 0.154
20 60.00 1500.01 1025 2366 0.000 0.000 0.000 1.000 10000.000 0.000 0.154
21 63.00 1500.01 1021 2275 0.000 0.000 0.000 1.000 10000.000 0.000 0.154
22 66.00 1500.01 1065 2281 0.000 0.000 0.000 1.000 10000.000 0.000 0.154
23 69.00 1500.01 1033 2270 0.000 0.000 0.000 1.000 10000.000 0.000 0.154
24 72.00 1500.01 988 2304 0.000 0.000 0.000 1.000 10000.000 0.000 0.154
25 75.00 1500.01 1012 2252 0.000 0.000 0.000 1.000 10000.000 0.000 0.154
26 78.00 1500.01 1021 2191 0.000 0.000 0.000 1.000 10000.000 0.000 0.154
27 81.00 1500.01 982 2234 0.000 0.000 0.000 1.000 10000.000 0.000 0.154
28 84.00 1500.01 978 2334 0.000 0.000 0.000 1.000 10000.000 0.000 0.154
29 87.00 1500.01 1012 2201 0.000 0.000 0.000 1.000 10000.000 0.000 0.154
30 90.00 1500.01 1006 2291 0.000 0.000 0.000 1.000 10000.000 0.000 0.154
31 93.00 1500.01 993 2206 0.000 0.000 0.000 1.000 10000.000 0.000 0.154
32 96.00 1500.01 1029 2223 0.000 0.000 0.000 1.000 10000.000 0.000 0.154
33 99.00 1500.01 1024 2291 0.000 0.000 0.000 1.000 10000.000 0.000 0.154
34 102.00 1500.01 1026 2373 0.000 0.000 0.000 1.000 10000.000 0.000 0.154
35 105.00 1500.01 1009 2217 0.000 0.000 0.000 1.000 10000.000 0.000 0.154
36 108.00 1500.01 1023 2278 0.000 0.000 0.000 1.000 10000.000 0.000 0.154
37 111.00 1500.01 989 2212 0.000 0.000 0.000 1.000 10000.000 0.000 0.154
38 114.00 1500.01 1009 2295 0.000 0.000 0.000 1.000 10000.000 0.000 0.154
39 117.00 1500.01 1000 2301 0.000 0.000 0.000 1.000 10000.000 0.000 0.154
40 120.00 1500.01 1026 2335 0.000 0.000 0.000 1.000 10000.000 0.000 0.154
41 123.00 1500.01 1049 2180 0.000 0.000 0.000 1.000 10000.000 0.000 0.154
42 126.00 1500.01 959 2293 0.000 0.000 0.000 1.000 10000.000 0.000 0.154
43 129.00 1500.01 992 2348 0.000 0.000 0.000 1.000 10000.000 0.000 0.154
44 132.00 1500.01 1024 2246 0.000 0.000 0.000 1.000 10000.000 0.000 0.154
45 135.00 1500.01 998 2326 0.000 0.000 0.000 1.000 10000.000 0.000 0.154
46 138.00 1500.01 1049 2363 0.000 0.000 0.000 1.000 10000.000 0.000 0.154
47 141.00 1500.01 959 2410 0.000 0.000 0.000 1.000 10000.000 0.000 0.154
48 144.00 1500.01 941 2243 0.000 0.000 0.000 1.000 10000.000 0.000 0.154
49 147.00 1500.01 969 2304 0.000 0.000 0.000 1.000 10000.000 0.000 0.154
50 150.00 1500.01 1026 2332 0.000 0.000 0.000 1.000 10000.000 0.000 0.154
51 153.00 1500.01 1009 2328 0.000 0.000 0.000 1.000 10000.000 0.000 0.154
52 156.00 1500.01 987 2256 0.000 0.000 0.000 1.000 10000.000 0.000 0.154
53 159.00 1500.01 1003 2252 0.000 0.000 0.000 1.000 10000.000 0.000 0.154
54 162.00 1500.01 978 2268 0.000 0.000 0.000 1.000 10000.000 0.000 0.154
55 165.00 1500.01 974 2201 0.000 0.000 0.000 1.000 10000.000 0.000 0.154
56 168.00 1500.01 979 2269 0.000 0.000 0.000 1.000 10000.000 0.000 0.154
57 171.00 1500.01 984 2276 0.000 0.000 0.000 1.000 10000.000 0.000 0.154
58 174.00 1500.01 976 2320 0.000 0.000 0.000 1.000 10000.000 0.000 0.154
59 177.00 1500.01 1021 2309 0.000 0.000 0.000 1.000 10000.000 0.000 0.154
60 180.00 1500.01 1007 2314 0.000 0.000 0.000 1.000 10000.000 0.000 0.154
61 183.00 1500.01 984 2304 0.000 0.000 0.000 1.000 10000.000 0.000 0.154
62 186.00 1500.01 984 2321 0.000 0.000 0.000 1.000 10000.000 0.000 0.154
63 189.00 1500.01 964 2223 0.000 0.000 0.000 1.000 10000.000 0.000 0.154
64 192.00 1500.01 1040 2337 0.000 0.000 0.000 1.000 10000.000 0.000 0.154
65 195.00 1500.01 961 2229 0.000 0.000 0.000 1.000 10000.000 0.000 0.154
66 198.00 1500.01 962 2356 0.000 0.000 0.000 1.000 10000.000 0.000 0.154
67 201.00 1500.01 961 2207 0.000 0.000 0.000 1.000 10000.000 0.000 0.154
68 204.00 1500.01 995 2357 0.000 0.000 0.000 1.000 10000.000 0.000 0.154
69 207.00 1500.01 975 2222 0.000 0.000 0.000 1.000 10000.000 0.000 0.154
70 210.00 1500.01 1006 2282 0.000 0.000 0.000 1.000 10000.000 0.000 0.154
71 213.00 1500.01 1041 2288 0.000 0.000 0.000 1.000 10000.000 0.000 0.154
72 216.00 1500.01 1039 2281 0.000 0.000 0.000 1.000 10000.000 0.000 0.154
73 219.00 1500.01 975 2307 0.000 0.000 0.000 1.000 10000.000 0.000 0.154
74 222.00 1500.01 1007 2200 0.000 0.000 0.000 1.000 10000.000 0.000 0.154
75 225.00 1500.01 950 2260 0.000 0.000 0.000 1.000 10000.000 0.000 0.154
76 228.00 1500.01 1007 2341 0.000 0.000 0.000 1.000 10000.000 0.000 0.154
77 231.00 1500.01 984 2302 0.000 0.000 0.000 1.000 10000.000 0.000 0.154
78 234.00 1500.01 1024 2228 0.000 0.000 0.000 1.000 10000.000 0.000 0.154
79 237.00 1500.01 977 2253 0.000 0.000 0.000 1.000 10000.000 0.000 0.154
80 240.00 1500.01 995 2236 0.000 0.000 0.000 1.000 10000.000 0.000 0.154
81 243.00 1500.01 950 2345 0.000 0.000 0.000 1.000 10000.000 0.000 0.154
82 246.00 1500.01 1009 2368 0.000 0.000 0.000 1.000 10000.000 0.000 0.154
83 249.00 1500.01 1046 2301 0.000 0.000 0.000 1.000 10000.000 0.000 0.154
84 252.00 1500.01 988 2246 0.000 0.000 0.000 1.000 10000.000 0.000 0.154
85 255.00 1500.01 982 2220 0.000 0.000 0.000 1.000 10000.000 0.000 0.154
86 258.00 1500.01 1004 2344 0.000 0.000 0.000 1.000 10000.000 0.000 0.154
87 261.00 1500.01 979 2237 0.000 0.000 0.000 1.000 10000.000 0.000 0.154
88 264.00 1500.01 1054 2218 0.000 0.000 0.000 1.000 10000.000 0.000 0.154
89 267.00 1500.01 986 2251 0.000 0.000 0.000 1.000 10000.000 0.000 0.154
90 270.00 1500.01 1021 2323 0.000 0.000 0.000 1.000 10000.000 0.000 0.154
91 273.00 1500.01 979 2197 0.000 0.000 0.000 1.000 10000.000 0.000 0.154
92 276.00 1500.01 986 2290 0.000 0.000 0.000 1.000 10000.000 0.000 0.154
93 279.00 1500.01 986 2171 0.000 0.000 0.000 1.000 10000.000 0.000 0.154
94 282.00 1500.01 1001 2281 0.000 0.000 0.000 1.000 10000.000 0.000 0.154
95 285.00 1500.01 975 2233 0.000 0.000 0.000 1.000 10000.000 0.000 0.154
96 288.00 1500.01 1037 2375 0.000 0.000 0.000 1.000 10000.000 0.000 0.154
97 291.00 1500.01 944 2263 0.000 0.000 0.000 1.000 10000.000 0.000 0.154
98 294.00 1500.01 925 2308 0.000 0.000 0.000 1.000 10000.000 0.000 0.154
99 297.00 1500.01 924 2288 0.000 0.000 0.000 1.000 10000.000 0.000 0.154
100 300.00 1500.01 1036 2377 0.000 0.000 0.000 1.000 10000.000 0.000 0.154
101 303.00 1500.01 931 2331 0.000 0.000 0.000 1.000 10000.000 0.000 0.154
102 306.00 1500.01 1024 2304 0.000 0.000 0.000 1.000 10000.000 0.000 0.154
103 309.00 1500.01 1035 2221 0.000 0.000 0.000 1.000 10000.000 0.000 0.154
104 312.00 1500.01 959 2313 0.000 0.000 0.000 1.000 10000.000 0.000 0.154
105 315.00 1500.01 971 2308 0.000 0.000 0.000 1.000 10000.000 0.000 0.154
106 318.00 1500.01 994 2293 0.000 0.000 0.000 1.000 10000.000 0.000 0.154
107 321.00 1500.01 1006 2311 0.000 0.000 0.000 1.000 10000.000 0.000 0.154
108 324.00 1500.01 984 2301 0.000 0.000 0.000 1.000 10000.000 0.000 0.154
109 327.00 1500.01 970 2214 0.000 0.000 0.000 1.000 10000.000 0.000 0.154
110 330.00 1500.01 1029 2304 0.000 0.000 0.000 1.000 10000.000 0.000 0.154
111 333.00 1500.01 975 2267 0.000 0.000 0.000 1.000 10000.000 0.000 0.154
112 336.00 1500.01 1021 2332 0.000 0.000 0.000 1.000 10000.000 0.000 0.154
113 339.00 1500.01 957 2191 0.000 0.000 0.000 1.000 10000.000 0.000 0.154
114 342.00 1500.01 956 2348 0.000 0.000 0.000 1.000 10000.000 0.000 0.154
115 345.00 1500.01 954 2259 0.000 0.000 0.000 1.000 10000.000 0.000 0.154
116 348.00 1500.01 1011 2251 0.000 0.000 0.000 1.000 10000.000 0.000 0.154
117 351.00 1500.01 976 2256 0.000 0.000 0.000 1.000 10000.000 0.000 0.154
118 354.00 1500.01 1018 2273 0.000 0.000 0.000 1.000 10000.000 0.000 0.154
119 357.00 1500.01 964 2326 0.000 0.000 0.000 1.000 10000.000 0.000 0.154
120 360.00 1500.01 974 2312 0.000 0.000 0.000 1.000 10000.000 0.000 0.154
121 363.00 1500.01 1026 2232 0.000 0.000 0.000 1.000 10000.000 0.000 0.154
122 366.00 1500.01 989 2378 0.000 0.000 0.000 1.000 10000.000 0.000 0.154
123 369.00 1500.01 1066 2266 0.000 0.000 0.000 1.000 10000.000 0.000 0.154
124 372.00 1500.01 1046 2191 0.000 0.000 0.000 1.000 10000.000 0.000 0.154
125 375.00 1500.01 1015 2214 0.000 0.000 0.000 1.000 10000.000 0.000 0.154
126 378.00 1500.01 1037 2286 0.000 0.000 0.000 1.000 10000.000 0.000 0.154
127 381.00 1500.01 955 2274 0.000 0.000 0.000 1.000 10000.000 0.000 0.154
128 384.00 1500.01 1049 2235 0.000 0.000 0.000 1.000 10000.000 0.000 0.154
129 387.00 1500.01 963 2277 0.000 0.000 0.000 1.000 10000.000 0.000 0.154
130 390.00 1500.01 1023 2309 0.000 0.000 0.000 1.000 10000.000 0.000 0.154
131 393.00 1500.01 986 2257 0.000 0.000 0.000 1.000 10000.000 0.000 0.154
132 396.00 1500.01 988 2322 0.000 0.000 0.000 1.000 10000.000 0.000 0.154
133 399.00 1500.01 983 2277 0.000 0.000 0.000 1.000 10000.000 0.000 0.154
134 402.00 1500.01 984 2271 0.000 0.000 0.000 1.000 10000.000 0.000 0.154
