# BinNR microsec tot-time (s)  O-Beam AUX Ampl_1(V) f_1(Hz) phase_1(deg) Ampl_2(V) f_2(Hz) phase_2(deg) chi(pos)
0 0.00 1500.02 298 475 0.000 0.000 0.000 1.000 10000.000 0.000 0.494
1 3.00 1500.02 644 876 0.000 0.000 0.000 1.000 10000.000 0.000 0.494
2 6.00 1500.02 605 878 0.000 0.000 0.000 1.000 10000.000 0.000 0.494
3 9.00 1500.02 619 849 0.000 0.000 0.000 1.000 10000.000 0.000 0.494
4 12.00 1500.02 606 836 0.000 0.000 0.000 1.000 10000.000 0.000 0.494
5 15.00 1500.02 583 843 0.000 0.000 0.000 1.000 10000.000 0.000 0.494
6 18.00 1500.02 613 897 0.000 0.000 0.000 1.000 10000.000 0.000 0.494
7 21.00 1500.02 574 837 0.000 0.000 0.000 1.000 10000.000 0.000 0.494
8 24.00 1500.02 629 890 0.000 0.000 0.000 1.000 10000.000 0.000 0.494
9 27.00 1500.02 570 888 0.000 0.000 0.000 1.000 10000.000 0.000 0.494
10 30.00 1500.02 646 930 0.000 0.000 0.000 1.000 10000.000 0.000 0.494
11 33.00 1500.02 614 883 0.000 0.000 0.000 1.000 10000.000 0.000 0.494
12 36.00 1500.02 649 969 0.000 0.000 0.000 1.000 10000.000 0.000 0.494
13 39.00 1500.02 608 926 0.000 0.000 0.000 1.000 10000.000 0.000 0.494
14 42.00 1500.02 623 960 0.000 0.000 0.000 1.000 10000.000 0.000 0.494
15 45.00 1500.02 565 940 0.000 0.000 0.000 1.000 10000.000 0.000 0.494
16 48.00 1500.02 630 922 0.000 0.000 0.000 1.000 10000.000 0.000 0.494
17 51.00 1500.02 603 876 0.000 0.000 0.000 1.000 10000.000 0.000 0.494
18 54.00 1500.02 638 1001 0.000 0.000 0.000 1.000 10000.000 0.000 0.494
19 57.00 1500.02 595 960 0.000 0.000 0.000 1.000 10000.000 0.000 0.494
20 60.00 1500.02 621 905 0.000 0.000 0.000 1.000 10000.000 0.000 0.494
21 63.00 1500.02 553 877 0.000 0.000 0.000 1.000 10000.000 0.000 0.494
22 66.00 1500.02 602 928 0.000 0.000 0.000 1.000 10000.000 0.000 0.494
23 69.00 1500.02 597 904 0.000 0.000 0.000 1.000 10000.000 0.000 0.494
24 72.00 1500.02 554 917 0.000 0.000 0.000 1.000 10000.000 0.000 0.494
25 75.00 1500.02 588 869 0.000 0.000 0.000 1.000 10000.000 0.000 0.494
26 78.00 1500.02 599 927 0.000 0.000 0.000 1.000 10000.000 0.000 0.494
27 81.00 1500.02 595 857 0.000 0.000 0.000 1.000 10000.000 0.000 0.494
28 84.00 1500.02 617 906 0.000 0.000 0.000 1.000 10000.000 0.000 0.494
29 87.00 1500.02 596 924 0.000 0.000 0.000 1.000 10000.000 0.000 0.494
30 90.00 1500.02 674 932 0.000 0.000 0.000 1.000 10000.000 0.000 0.494
31 93.00 1500.02 596 872 0.000 0.000 0.000 1.000 10000.000 0.000 0.494
32 96.00 1500.02 662 908 0.000 0.000 0.000 1.000 10000.000 0.000 0.494
33 99.00 1500.02 624 909 0.000 0.000 0.000 1.000 10000.000 0.000 0.494
34 102.00 1500.02 587 876 0.000 0.000 0.000 1.000 10000.000 0.000 0.494
35 105.00 1500.02 604 905 0.000 0.000 0.000 1.000 10000.000 0.000 0.494
36 108.00 1500.02 622 858 0.000 0.000 0.000 1.000 10000.000 0.000 0.494
37 111.00 1500.02 594 839 0.000 0.000 0.000 1.000 10000.000 0.000 0.494
38 114.00 1500.02 596 874 0.000 0.000 0.000 1.000 10000.000 0.000 0.494
39 117.00 1500.02 577 840 0.000 0.000 0.000 1.000 10000.000 0.000 0.494
40 120.00 1500.02 562 892 0.000 0.000 0.000 1.000 10000.000 0.000 0.494
41 123.00 1500.02 602 874 0.000 0.000 0.000 1.000 10000.000 0.000 0.494
42 126.00 1500.02 624 909 0.000 0.000 0.000 1.000 10000.000 0.000 0.494
43 129.00 1500.02 624 867 0.000 0.000 0.000 1.000 10000.000 0.000 0.494
44 132.00 1500.02 635 883 0.000 0.000 0.000 1.000 10000.000 0.000 0.494
45 135.00 1500.02 637 878 0.000 0.000 0.000 1.000 10000.000 0.000 0.494
46 138.00 1500.02 646 954 0.000 0.000 0.000 1.000 10000.000 0.000 0.494
47 141.00 1500.02 629 929 0.000 0.000 0.000 1.000 10000.000 0.000 0.494
48 144.00 1500.02 607 915 0.000 0.000 0.000 1.000 10000.000 0.000 0.494
49 147.00 1500.02 610 922 0.000 0.000 0.000 1.000 10000.000 0.000 0.494
50 150.00 1500.02 632 973 0.000 0.000 0.000 1.000 10000.000 0.000 0.494
51 153.00 1500.02 612 974 0.000 0.000 0.000 1.000 10000.000 0.000 0.494
52 156.00 1500.02 631 995 0.000 0.000 0.000 1.000 10000.000 0.000 0.494
53 159.00 1500.02 609 907 0.000 0.000 0.000 1.000 10000.000 0.000 0.494
54 162.00 1500.02 608 915 0.000 0.000 0.000 1.000 10000.000 0.000 0.494
55 165.00 1500.02 569 926 0.000 0.000 0.000 1.000 10000.000 0.000 0.494
56 168.00 1500.02 603 906 0.000 0.000 0.000 1.000 10000.000 0.000 0.494
57 171.00 1500.02 580 863 0.000 0.000 0.000 1.000 10000.000 0.000 0.494
58 174.00 1500.02 619 875 0.000 0.000 0.000 1.000 10000.000 0.000 0.494
59 177.00 1500.02 607 860 0.000 0.000 0.000 1.000 10000.000 0.000 0.494
60 180.00 1500.02 595 848 0.000 0.000 0.000 1.000 10000.000 0.000 0.494
61 183.00 1500.02 598 928 0.000 0.000 0.000 1.000 10000.000 0.000 0.494
62 186.00 1500.02 587 882 0.000 0.000 0.000 1.000 10000.000 0.000 0.494
63 189.00 1500.02 581 853 0.000 0.000 0.000 1.000 10000.000 0.000 0.494
64 192.00 1500.02 650 944 0.000 0.000 0.000 1.000 10000.000 0.000 0.494
65 195.00 1500.02 587 918 0.000 0.000 0.000 1.000 10000.000 0.000 0.494
66 198.00 1500.02 619 962 0.000 0.000 0.000 1.000 10000.000 0.000 0.494
67 201.00 1500.02 554 898 0.000 0.000 0.000 1.000 10000.000 0.000 0.494
68 204.00 1500.02 620 959 0.000 0.000 0.000 1.000 10000.000 0.000 0.494
69 207.00 1500.02 622 851 0.000 0.000 0.000 1.000 10000.000 0.000 0.494
70 210.00 1500.02 588 882 0.000 0.000 0.000 1.000 10000.000 0.000 0.494
71 213.00 1500.02 587 858 0.000 0.000 0.000 1.000 10000.000 0.000 0.494
72 216.00 1500.02 604 893 0.000 0.000 0.000 1.000 10000.000 0.000 0.494
73 219.00 1500.02 601 883 0.000 0.000 0.000 1.000 10000.000 0.000 0.494
74 222.00 1500.02 587 924 0.000 0.000 0.000 1.000 10000.000 0.000 0.494
75 225.00 1500.02 607 778 0.000 0.000 0.000 1.000 10000.000 0.000 0.494
76 228.00 1500.02 653 883 0.000 0.000 0.000 1.000 10000.000 0.000 0.494
77 231.00 1500.02 616 930 0.000 0.000 0.000 1.000 10000.000 0.000 0.494
78 234.00 1500.02 622 931 0.000 0.000 0.000 1.000 10000.000 0.000 0.494
79 237.00 1500.02 624 913 0.000 0.000 0.000 1.000 10000.000 0.000 0.494
80 240.00 1500.02 661 990 0.000 0.000 0.000 1.000 10000.000 0.000 0.494
81 243.00 1500.02 637 986 0.000 0.000 0.000 1.000 10000.000 0.000 0.494
82 246.00 1500.02 633 1008 0.000 0.000 0.000 1.000 10000.000 0.000 0.494
83 249.00 1500.02 599 992 0.000 0.000 0.000 1.000 10000.000 0.000 0.494
84 252.00 1500.02 645 1006 0.000 0.000 0.000 1.000 10000.000 0.000 0.494
85 255.00 1500.02 599 924 0.000 0.000 0.000 1.000 10000.000 0.000 0.494
86 258.00 1500.02 609 907 0.000 0.000 0.000 1.000 10000.000 0.000 0.494
87 261.00 1500.02 631 947 0.000 0.000 0.000 1.000 10000.000 0.000 0.494
88 264.00 1500.02 552 884 0.000 0.000 0.000 1.000 10000.000 0.000 0.494
89 267.00 1500.02 628 863 0.000 0.000 0.000 1.000 10000.000 0.000 0.494
90 270.00 1500.02 629 843 0.000 0.000 0.000 1.000 10000.000 0.000 0.494
91 273.00 1500.02 593 858 0.000 0.000 0.000 1.000 10000.000 0.000 0.494
92 276.00 1500.02 595 827 0.000 0.000 0.000 1.000 10000.000 0.000 0.494
93 279.00 1500.02 631 908 0.000 0.000 0.000 1.000 10000.000 0.000 0.494
94 282.00 1500.02 596 854 0.000 0.000 0.000 1.000 10000.000 0.000 0.494
95 285.00 1500.02 601 881 0.000 0.000 0.000 1.000 10000.000 0.000 0.494
96 288.00 1500.02 602 902 0.000 0.000 0.000 1.000 10000.000 0.000 0.494
97 291.00 1500.02 629 915 0.000 0.000 0.000 1.000 10000.000 0.000 0.494
98 294.00 1500.02 589 967 0.000 0.000 0.000 1.000 10000.000 0.000 0.494
99 297.00 1500.02 621 917 0.000 0.000 0.000 1.000 10000.000 0.000 0.494
100 300.00 1500.02 631 929 0.000 0.000 0.000 1.000 10000.000 0.000 0.494
101 303.00 1500.02 588 904 0.000 0.000 0.000 1.000 10000.000 0.000 0.494
102 306.00 1500.02 616 934 0.000 0.000 0.000 1.000 10000.000 0.000 0.494
103 309.00 1500.02 581 884 0.000 0.000 0.000 1.000 10000.000 0.000 0.494
104 312.00 1500.02 613 850 0.000 0.000 0.000 1.000 10000.000 0.000 0.494
105 315.00 1500.02 597 901 0.000 0.000 0.000 1.000 10000.000 0.000 0.494
106 318.00 1500.02 617 831 0.000 0.000 0.000 1.000 10000.000 0.000 0.494
107 321.00 1500.02 624 910 0.000 0.000 0.000 1.000 10000.000 0.000 0.494
108 324.00 1500.02 635 911 0.000 0.000 0.000 1.000 10000.000 0.000 0.494
109 327.00 1500.02 612 865 0.000 0.000 0.000 1.000 10000.000 0.000 0.494
110 330.00 1500.02 597 857 0.000 0.000 0.000 1.000 10000.000 0.000 0.494
111 333.00 1500.02 622 955 0.000 0.000 0.000 1.000 10000.000 0.000 0.494
112 336.00 1500.02 613 957 0.000 0.000 0.000 1.000 10000.000 0.000 0.494
113 339.00 1500.02 610 964 0.000 0.000 0.000 1.000 10000.000 0.000 0.494
114 342.00 1500.02 658 988 0.000 0.000 0.000 1.000 10000.000 0.000 0.494
115 345.00 1500.02 653 941 0.000 0.000 0.000 1.000 10000.000 0.000 0.494
116 348.00 1500.02 616 964 0.000 0.000 0.000 1.000 10000.000 0.000 0.494
117 351.00 1500.02 569 971 0.000 0.000 0.000 1.000 10000.000 0.000 0.494
118 354.00 1500.02 622 1010 0.000 0.000 0.000 1.000 10000.000 0.000 0.494
119 357.00 1500.02 606 899 0.000 0.000 0.000 1.000 10000.000 0.000 0.494
120 360.00 1500.02 577 1031 0.000 0.000 0.000 1.000 10000.000 0.000 0.494
121 363.00 1500.02 592 912 0.000 0.000 0.000 1.000 10000.000 0.000 0.494
122 366.00 1500.02 612 885 0.000 0.000 0.000 1.000 10000.000 0.000 0.494
123 369.00 1500.02 648 876 0.000 0.000 0.000 1.000 10000.000 0.000 0.494
124 372.00 1500.02 623 872 0.000 0.000 0.000 1.000 10000.000 0.000 0.494
125 375.00 1500.02 639 828 0.000 0.000 0.000 1.000 10000.000 0.000 0.494
126 378.00 1500.02 601 850 0.000 0.000 0.000 1.000 10000.000 0.000 0.494
127 381.00 1500.02 580 888 0.000 0.000 0.000 1.000 10000.000 0.000 0.494
128 384.00 1500.02 616 908 0.000 0.000 0.000 1.000 10000.000 0.000 0.494
129 387.00 1500.02 652 875 0.000 0.000 0.000 1.000 10000.000 0.000 0.494
130 390.00 1500.02 637 957 0.000 0.000 0.000 1.000 10000.000 0.000 0.494
131 393.00 1500.02 613 938 0.000 0.000 0.000 1.000 10000.000 0.000 0.494
132 396.00 1500.02 638 952 0.000 0.000 0.000 1.000 10000.000 0.000 0.494
133 399.00 1500.02 620 931 0.000 0.000 0.000 1.000 10000.000 0.000 0.494
134 402.00 1500.02 619 957 0.000 0.000 0.000 1.000 10000.000 0.000 0.494
