# BinNR microsec tot-time (s)  O-Beam AUX Ampl_1(V) f_1(Hz) phase_1(deg) Ampl_2(V) f_2(Hz) phase_2(deg) chi(pos)
0 0.00 1500.04 464 1429 0.000 0.000 0.000 1.000 10000.000 0.000 -0.846
1 3.00 1500.04 828 2749 0.000 0.000 0.000 1.000 10000.000 0.000 -0.846
2 6.00 1500.04 866 2820 0.000 0.000 0.000 1.000 10000.000 0.000 -0.846
3 9.00 1500.04 831 2782 0.000 0.000 0.000 1.000 10000.000 0.000 -0.846
4 12.00 1500.04 838 2884 0.000 0.000 0.000 1.000 10000.000 0.000 -0.846
5 15.00 1500.04 846 2824 0.000 0.000 0.000 1.000 10000.000 0.000 -0.846
6 18.00 1500.04 842 2890 0.000 0.000 0.000 1.000 10000.000 0.000 -0.846
7 21.00 1500.04 826 2842 0.000 0.000 0.000 1.000 10000.000 0.000 -0.846
8 24.00 1500.04 889 2832 0.000 0.000 0.000 1.000 10000.000 0.000 -0.846
9 27.00 1500.04 810 2754 0.000 0.000 0.000 1.000 10000.000 0.000 -0.846
10 30.00 1500.04 903 2862 0.000 0.000 0.000 1.000 10000.000 0.000 -0.846
11 33.00 1500.04 894 2721 0.000 0.000 0.000 1.000 10000.000 0.000 -0.846
12 36.00 1500.04 888 2780 0.000 0.000 0.000 1.000 10000.000 0.000 -0.846
13 39.00 1500.04 836 2815 0.000 0.000 0.000 1.000 10000.000 0.000 -0.846
14 42.00 1500.04 842 2783 0.000 0.000 0.000 1.000 10000.000 0.000 -0.846
15 45.00 1500.04 845 2739 0.000 0.000 0.000 1.000 10000.000 0.000 -0.846
16 48.00 1500.04 864 2838 0.000 0.000 0.000 1.000 10000.000 0.000 -0.846
17 51.00 1500.04 867 2778 0.000 0.000 0.000 1.000 10000.000 0.000 -0.846
18 54.00 1500.04 845 2828 0.000 0.000 0.000 1.000 10000.000 0.000 -0.846
19 57.00 1500.04 802 2836 0.000 0.000 0.000 1.000 10000.000 0.000 -0.846
20 60.00 1500.04 868 2788 0.000 0.000 0.000 1.000 10000.000 0.000 -0.846
21 63.00 1500.04 838 2829 0.000 0.000 0.000 1.000 10000.000 0.000 -0.846
22 66.00 1500.04 857 2883 0.000 0.000 0.000 1.000 10000.000 0.000 -0.846
23 69.00 1500.04 838 2894 0.000 0.000 0.000 1.000 10000.000 0.000 -0.846
24 72.00 1500.04 813 2849 0.000 0.000 0.000 1.000 10000.000 0.000 -0.846
25 75.00 1500.04 869 2782 0.000 0.000 0.000 1.000 10000.000 0.000 -0.846
26 78.00 1500.04 866 2935 0.000 0.000 0.000 1.000 10000.000 0.000 -0.846
27 81.00 1500.04 836 2896 0.000 0.000 0.000 1.000 10000.000 0.000 -0.846
28 84.00 1500.04 852 2767 0.000 0.000 0.000 1.000 10000.000 0.000 -0.846
29 87.00 1500.04 798 2770 0.000 0.000 0.000 1.000 10000.000 0.000 -0.846
30 90.00 1500.04 873 2820 0.000 0.000 0.000 1.000 10000.000 0.000 -0.846
31 93.00 1500.04 861 2739 0.000 0.000 0.000 1.000 10000.000 0.000 -0.846
32 96.00 1500.04 847 2792 0.000 0.000 0.000 1.000 10000.000 0.000 -0.846
33 99.00 1500.04 826 2735 0.000 0.000 0.000 1.000 10000.000 0.000 -0.846
34 102.00 1500.04 937 2823 0.000 0.000 0.000 1.000 10000.000 0.000 -0.846
35 105.00 1500.04 787 2790 0.000 0.000 0.000 1.000 10000.000 0.000 -0.846
36 108.00 1500.04 864 2850 0.000 0.000 0.000 1.000 10000.000 0.000 -0.846
37 111.00 1500.04 794 2848 0.000 0.000 0.000 1.000 10000.000 0.000 -0.846
38 114.00 1500.04 842 2779 0.000 0.000 0.000 1.000 10000.000 0.000 -0.846
39 117.00 1500.04 822 2763 0.000 0.000 0.000 1.000 10000.000 0.000 -0.846
40 120.00 1500.04 807 2837 0.000 0.000 0.000 1.000 10000.000 0.000 -0.846
41 123.00 1500.04 842 2744 0.000 0.000 0.000 1.000 10000.000 0.000 -0.846
42 126.00 1500.04 877 2816 0.000 0.000 0.000 1.000 10000.000 0.000 -0.846
43 129.00 1500.04 822 2789 0.000 0.000 0.000 1.000 10000.000 0.000 -0.846
44 132.00 1500.04 834 2859 0.000 0.000 0.000 1.000 10000.000 0.000 -0.846
45 135.00 1500.04 888 2792 0.000 0.000 0.000 1.000 10000.000 0.000 -0.846
46 138.00 1500.04 897 2759 0.000 0.000 0.000 1.000 10000.000 0.000 -0.846
47 141.00 1500.04 800 2841 0.000 0.000 0.000 1.000 10000.000 0.000 -0.846
48 144.00 1500.04 907 2953 0.000 0.000 0.000 1.000 10000.000 0.000 -0.846
49 147.00 1500.04 819 2719 0.000 0.000 0.000 1.000 10000.000 0.000 -0.846
50 150.00 1500.04 886 2788 0.000 0.000 0.000 1.000 10000.000 0.000 -0.846
51 153.00 1500.04 761 2816 0.000 0.000 0.000 1.000 10000.000 0.000 -0.846
52 156.00 1500.04 840 2804 0.000 0.000 0.000 1.000 10000.000 0.000 -0.846
53 159.00 1500.04 887 2795 0.000 0.000 0.000 1.000 10000.000 0.000 -0.846
54 162.00 1500.04 872 2740 0.000 0.000 0.000 1.000 10000.000 0.000 -0.846
55 165.00 1500.04 833 2887 0.000 0.000 0.000 1.000 10000.000 0.000 -0.846
56 168.00 1500.04 899 2815 0.000 0.000 0.000 1.000 10000.000 0.000 -0.846
57 171.00 1500.04 891 2931 0.000 0.000 0.000 1.000 10000.000 0.000 -0.846
58 174.00 1500.04 850 2857 0.000 0.000 0.000 1.000 10000.000 0.000 -0.846
59 177.00 1500.04 890 2850 0.000 0.000 0.000 1.000 10000.000 0.000 -0.846
60 180.00 1500.04 890 2818 0.000 0.000 0.000 1.000 10000.000 0.000 -0.846
61 183.00 1500.04 823 2861 0.000 0.000 0.000 1.000 10000.000 0.000 -0.846
62 186.00 1500.04 828 2893 0.000 0.000 0.000 1.000 10000.000 0.000 -0.846
63 189.00 1500.04 812 2827 0.000 0.000 0.000 1.000 10000.000 0.000 -0.846
64 192.00 1500.04 838 2853 0.000 0.000 0.000 1.000 10000.000 0.000 -0.846
65 195.00 1500.04 897 2724 0.000 0.000 0.000 1.000 10000.000 0.000 -0.846
66 198.00 1500.04 876 2913 0.000 0.000 0.000 1.000 10000.000 0.000 -0.846
67 201.00 1500.04 842 2792 0.000 0.000 0.000 1.000 10000.000 0.000 -0.846
68 204.00 1500.04 906 2891 0.000 0.000 0.000 1.000 10000.000 0.000 -0.846
69 207.00 1500.04 833 2857 0.000 0.000 0.000 1.000 10000.000 0.000 -0.846
70 210.00 1500.04 874 2879 0.000 0.000 0.000 1.000 10000.000 0.000 -0.846
71 213.00 1500.04 881 2770 0.000 0.000 0.000 1.000 10000.000 0.000 -0.846
72 216.00 1500.04 925 2909 0.000 0.000 0.000 1.000 10000.000 0.000 -0.846
73 219.00 1500.04 848 2829 0.000 0.000 0.000 1.000 10000.000 0.000 -0.846
74 222.00 1500.04 885 2788 0.000 0.000 0.000 1.000 10000.000 0.000 -0.846
75 225.00 1500.04 813 2780 0.000 0.000 0.000 1.000 10000.000 0.000 -0.846
76 228.00 1500.04 846 2906 0.000 0.000 0.000 1.000 10000.000 0.000 -0.846
77 231.00 1500.04 810 2723 0.000 0.000 0.000 1.000 10000.000 0.000 -0.846
78 234.00 1500.04 877 2821 0.000 0.000 0.000 1.000 10000.000 0.000 -0.846
79 237.00 1500.04 894 2760 0.000 0.000 0.000 1.000 10000.000 0.000 -0.846
80 240.00 1500.04 894 2739 0.000 0.000 0.000 1.000 10000.000 0.000 -0.846
81 243.00 1500.04 849 2684 0.000 0.000 0.000 1.000 10000.000 0.000 -0.846
82 246.00 1500.04 835 2821 0.000 0.000 0.000 1.000 10000.000 0.000 -0.846
83 249.00 1500.04 837 2692 0.000 0.000 0.000 1.000 10000.000 0.000 -0.846
84 252.00 1500.04 853 2792 0.000 0.000 0.000 1.000 10000.000 0.000 -0.846
85 255.00 1500.04 861 2781 0.000 0.000 0.000 1.000 10000.000 0.000 -0.846
86 258.00 1500.04 875 2886 0.000 0.000 0.000 1.000 10000.000 0.000 -0.846
87 261.00 1500.04 860 2782 0.000 0.000 0.000 1.000 10000.000 0.000 -0.846
88 264.00 1500.04 908 2841 0.000 0.000 0.000 1.000 10000.000 0.000 -0.846
89 267.00 1500.04 847 2778 0.000 0.000 0.000 1.000 10000.000 0.000 -0.846
90 270.00 1500.04 858 2839 0.000 0.000 0.000 1.000 10000.000 0.000 -0.846
91 273.00 1500.04 867 2838 0.000 0.000 0.000 1.000 10000.000 0.000 -0.846
92 276.00 1500.04 885 2860 0.000 0.000 0.000 1.000 10000.000 0.000 -0.846
93 279.00 1500.04 829 2698 0.000 0.000 0.000 1.000 10000.000 0.000 -0.846
94 282.00 1500.04 894 2801 0.000 0.000 0.000 1.000 10000.000 0.000 -0.846
95 285.00 1500.04 849 2802 0.000 0.000 0.000 1.000 10000.000 0.000 -0.846
96 288.00 1500.04 863 2784 0.000 0.000 0.000 1.000 10000.000 0.000 -0.846
97 291.00 1500.04 840 2852 0.000 0.000 0.000 1.000 10000.000 0.000 -0.846
98 294.00 1500.04 868 2767 0.000 0.000 0.000 1.000 10000.000 0.000 -0.846
99 297.00 1500.04 831 2753 0.000 0.000 0.000 1.000 10000.000 0.000 -0.846
100 300.00 1500.04 880 2845 0.000 0.000 0.000 1.000 10000.000 0.000 -0.846
101 303.00 1500.04 825 2750 0.000 0.000 0.000 1.000 10000.000 0.000 -0.846
102 306.00 1500.04 882 2824 0.000 0.000 0.000 1.000 10000.000 0.000 -0.846
103 309.00 1500.04 839 2783 0.000 0.000 0.000 1.000 10000.000 0.000 -0.846
104 312.00 1500.04 869 2884 0.000 0.000 0.000 1.000 10000.000 0.000 -0.846
105 315.00 1500.04 851 2729 0.000 0.000 0.000 1.000 10000.000 0.000 -0.846
106 318.00 1500.04 817 2840 0.000 0.000 0.000 1.000 10000.000 0.000 -0.846
107 321.00 1500.04 872 2891 0.000 0.000 0.000 1.000 10000.000 0.000 -0.846
108 324.00 1500.04 892 2793 0.000 0.000 0.000 1.000 10000.000 0.000 -0.846
109 327.00 1500.04 918 2903 0.000 0.000 0.000 1.000 10000.000 0.000 -0.846
110 330.00 1500.04 874 2796 0.000 0.000 0.000 1.000 10000.000 0.000 -0.846
111 333.00 1500.04 910 2872 0.000 0.000 0.000 1.000 10000.000 0.000 -0.846
112 336.00 1500.04 841 2837 0.000 0.000 0.000 1.000 10000.000 0.000 -0.846
113 339.00 1500.04 878 2739 0.000 0.000 0.000 1.000 10000.000 0.000 -0.846
114 342.00 1500.04 830 2811 0.000 0.000 0.000 1.000 10000.000 0.000 -0.846
115 345.00 1500.04 842 2787 0.000 0.000 0.000 1.000 10000.000 0.000 -0.846
116 348.00 1500.04 858 2830 0.000 0.000 0.000 1.000 10000.000 0.000 -0.846
117 351.00 1500.04 886 2833 0.000 0.000 0.000 1.000 10000.000 0.000 -0.846
118 354.00 1500.04 887 2774 0.000 0.000 0.000 1.000 10000.000 0.000 -0.846
119 357.00 1500.04 869 2806 0.000 0.000 0.000 1.000 10000.000 0.000 -0.846
120 360.00 1500.04 875 2898 0.000 0.000 0.000 1.000 10000.000 0.000 -0.846
121 363.00 1500.04 856 2798 0.000 0.000 0.000 1.000 10000.000 0.000 -0.846
122 366.00 1500.04 845 2912 0.000 0.000 0.000 1.000 10000.000 0.000 -0.846
123 369.00 1500.04 798 2836 0.000 0.000 0.000 1.000 10000.000 0.000 -0.846
124 372.00 1500.04 849 2895 0.000 0.000 0.000 1.000 10000.000 0.000 -0.846
125 375.00 1500.04 870 2848 0.000 0.000 0.000 1.000 10000.000 0.000 -0.846
126 378.00 1500.04 841 2859 0.000 0.000 0.000 1.000 10000.000 0.000 -0.846
127 381.00 1500.04 899 2814 0.000 0.000 0.000 1.000 10000.000 0.000 -0.846
128 384.00 1500.04 912 2870 0.000 0.000 0.000 1.000 10000.000 0.000 -0.846
129 387.00 1500.04 913 2701 0.000 0.000 0.000 1.000 10000.000 0.000 -0.846
130 390.00 1500.04 824 2843 0.000 0.000 0.000 1.000 10000.000 0.000 -0.846
131 393.00 1500.04 859 2788 0.000 0.000 0.000 1.000 10000.000 0.000 -0.846
132 396.00 1500.04 858 2840 0.000 0.000 0.000 1.000 10000.000 0.000 -0.846
133 399.00 1500.04 863 2867 0.000 0.000 0.000 1.000 10000.000 0.000 -0.846
134 402.00 1500.04 856 2938 0.000 0.000 0.000 1.000 10000.000 0.000 -0.846
