# BinNR microsec tot-time (s)  O-Beam AUX Ampl_1(V) f_1(Hz) phase_1(deg) Ampl_2(V) f_2(Hz) phase_2(deg) chi(pos)
0 0.00 1500.00 281 391 0.000 0.000 0.000 1.000 10000.000 0.000 -1.505
1 3.00 1500.00 573 866 0.000 0.000 0.000 1.000 10000.000 0.000 -1.505
2 6.00 1500.00 570 789 0.000 0.000 0.000 1.000 10000.000 0.000 -1.505
3 9.00 1500.00 534 742 0.000 0.000 0.000 1.000 10000.000 0.000 -1.505
4 12.00 1500.00 547 823 0.000 0.000 0.000 1.000 10000.000 0.000 -1.505
5 15.00 1500.00 561 739 0.000 0.000 0.000 1.000 10000.000 0.000 -1.505
6 18.00 1500.00 542 767 0.000 0.000 0.000 1.000 10000.000 0.000 -1.505
7 21.00 1500.00 548 751 0.000 0.000 0.000 1.000 10000.000 0.000 -1.505
8 24.00 1500.00 594 814 0.000 0.000 0.000 1.000 10000.000 0.000 -1.505
9 27.00 1500.00 603 794 0.000 0.000 0.000 1.000 10000.000 0.000 -1.505
10 30.00 1500.00 583 893 0.000 0.000 0.000 1.000 10000.000 0.000 -1.505
11 33.00 1500.00 614 870 0.000 0.000 0.000 1.000 10000.000 0.000 -1.505
12 36.00 1500.00 552 830 0.000 0.000 0.000 1.000 10000.000 0.000 -1.505
13 39.00 1500.00 588 845 0.000 0.000 0.000 1.000 10000.000 0.000 -1.505
14 42.00 1500.00 584 870 0.000 0.000 0.000 1.000 10000.000 0.000 -1.505
15 45.00 1500.00 566 823 0.000 0.000 0.000 1.000 10000.000 0.000 -1.505
16 48.00 1500.00 631 822 0.000 0.000 0.000 1.000 10000.000 0.000 -1.505
17 51.00 1500.00 572 888 0.000 0.000 0.000 1.000 10000.000 0.000 -1.505
18 54.00 1500.00 588 849 0.000 0.000 0.000 1.000 10000.000 0.000 -1.505
19 57.00 1500.00 516 862 0.000 0.000 0.000 1.000 10000.000 0.000 -1.505
20 60.00 1500.00 542 813 0.000 0.000 0.000 1.000 10000.000 0.000 -1.505
21 63.00 1500.00 552 759 0.000 0.000 0.000 1.000 10000.000 0.000 -1.505
22 66.00 1500.00 566 804 0.000 0.000 0.000 1.000 10000.000 0.000 -1.505
23 69.00 1500.00 576 766 0.000 0.000 0.000 1.000 10000.000 0.000 -1.505
24 72.00 1500.00 595 808 0.000 0.000 0.000 1.000 10000.000 0.000 -1.505
25 75.00 1500.00 536 760 0.000 0.000 0.000 1.000 10000.000 0.000 -1.505
26 78.00 1500.00 566 768 0.000 0.000 0.000 1.000 10000.000 0.000 -1.505
27 81.00 1500.00 593 769 0.000 0.000 0.000 1.000 10000.000 0.000 -1.505
28 84.00 1500.00 554 840 0.000 0.000 0.000 1.000 10000.000 0.000 -1.505
29 87.00 1500.00 589 847 0.000 0.000 0.000 1.000 10000.000 0.000 -1.505
30 90.00 1500.00 550 822 0.000 0.000 0.000 1.000 10000.000 0.000 -1.505
31 93.00 1500.00 588 775 0.000 0.000 0.000 1.000 10000.000 0.000 -1.505
32 96.00 1500.00 584 820 0.000 0.000 0.000 1.000 10000.000 0.000 -1.505
33 99.00 1500.00 541 790 0.000 0.000 0.000 1.000 10000.000 0.000 -1.505
34 102.00 1500.00 563 845 0.000 0.000 0.000 1.000 10000.000 0.000 -1.505
35 105.00 1500.00 579 775 0.000 0.000 0.000 1.000 10000.000 0.000 -1.505
36 108.00 1500.00 596 832 0.000 0.000 0.000 1.000 10000.000 0.000 -1.505
37 111.00 1500.00 567 798 0.000 0.000 0.000 1.000 10000.000 0.000 -1.505
38 114.00 1500.00 571 776 0.000 0.000 0.000 1.000 10000.000 0.000 -1.505
39 117.00 1500.00 569 776 0.000 0.000 0.000 1.000 10000.000 0.000 -1.505
40 120.00 1500.00 604 739 0.000 0.000 0.000 1.000 10000.000 0.000 -1.505
41 123.00 1500.00 573 810 0.000 0.000 0.000 1.000 10000.000 0.000 -1.505
42 126.00 1500.00 559 846 0.000 0.000 0.000 1.000 10000.000 0.000 -1.505
43 129.00 1500.00 559 841 0.000 0.000 0.000 1.000 10000.000 0.000 -1.505
44 132.00 1500.00 559 852 0.000 0.000 0.000 1.000 10000.000 0.000 -1.505
45 135.00 1500.00 595 814 0.000 0.000 0.000 1.000 10000.000 0.000 -1.505
46 138.00 1500.00 592 850 0.000 0.000 0.000 1.000 10000.000 0.000 -1.505
47 141.00 1500.00 581 908 0.000 0.000 0.000 1.000 10000.000 0.000 -1.505
48 144.00 1500.00 584 904 0.000 0.000 0.000 1.000 10000.000 0.000 -1.505
49 147.00 1500.00 539 883 0.000 0.000 0.000 1.000 10000.000 0.000 -1.505
50 150.00 1500.00 533 885 0.000 0.000 0.000 1.000 10000.000 0.000 -1.505
51 153.00 1500.00 573 859 0.000 0.000 0.000 1.000 10000.000 0.000 -1.505
52 156.00 1500.00 594 843 0.000 0.000 0.000 1.000 10000.000 0.000 -1.505
53 159.00 1500.00 580 821 0.000 0.000 0.000 1.000 10000.000 0.000 -1.505
54 162.00 1500.00 520 834 0.000 0.000 0.000 1.000 10000.000 0.000 -1.505
55 165.00 1500.00 530 787 0.000 0.000 0.000 1.000 10000.000 0.000 -1.505
56 168.00 1500.00 570 755 0.000 0.000 0.000 1.000 10000.000 0.000 -1.505
57 171.00 1500.00 602 764 0.000 0.000 0.000 1.000 10000.000 0.000 -1.505
58 174.00 1500.00 577 801 0.000 0.000 0.000 1.000 10000.000 0.000 -1.505
59 177.00 1500.00 552 745 0.000 0.000 0.000 1.000 10000.000 0.000 -1.505
60 180.00 1500.00 536 817 0.000 0.000 0.000 1.000 10000.000 0.000 -1.505
61 183.00 1500.00 556 789 0.000 0.000 0.000 1.000 10000.000 0.000 -1.505
62 186.00 1500.00 581 833 0.000 0.000 0.000 1.000 10000.000 0.000 -1.505
63 189.00 1500.00 567 818 0.000 0.000 0.000 1.000 10000.000 0.000 -1.505
64 192.00 1500.00 576 811 0.000 0.000 0.000 1.000 10000.000 0.000 -1.505
65 195.00 1500.00 558 860 0.000 0.000 0.000 1.000 10000.000 0.000 -1.505
66 198.00 1500.00 590 846 0.000 0.000 0.000 1.000 10000.000 0.000 -1.505
67 201.00 1500.00 551 852 0.000 0.000 0.000 1.000 10000.000 0.000 -1.505
68 204.00 1500.00 581 840 0.000 0.000 0.000 1.000 10000.000 0.000 -1.505
69 207.00 1500.00 521 774 0.000 0.000 0.000 1.000 10000.000 0.000 -1.505
70 210.00 1500.00 547 835 0.000 0.000 0.000 1.000 10000.000 0.000 -1.505
71 213.00 1500.00 578 747 0.000 0.000 0.000 1.000 10000.000 0.000 -1.505
72 216.00 1500.00 591 773 0.000 0.000 0.000 1.000 10000.000 0.000 -1.505
73 219.00 1500.00 561 805 0.000 0.000 0.000 1.000 10000.000 0.000 -1.505
74 222.00 1500.00 536 815 0.000 0.000 0.000 1.000 10000.000 0.000 -1.505
75 225.00 1500.00 566 819 0.000 0.000 0.000 1.000 10000.000 0.000 -1.505
76 228.00 1500.00 592 837 0.000 0.000 0.000 1.000 10000.000 0.000 -1.505
77 231.00 1500.00 541 850 0.000 0.000 0.000 1.000 10000.000 0.000 -1.505
78 234.00 1500.00 539 847 0.000 0.000 0.000 1.000 10000.000 0.000 -1.505
79 237.00 1500.00 579 873 0.000 0.000 0.000 1.000 10000.000 0.000 -1.505
80 240.00 1500.00 568 864 0.000 0.000 0.000 1.000 10000.000 0.000 -1.505
81 243.00 1500.00 622 923 0.000 0.000 0.000 1.000 10000.000 0.000 -1.505
82 246.00 1500.00 583 898 0.000 0.000 0.000 1.000 10000.000 0.000 -1.505
83 249.00 1500.00 531 848 0.000 0.000 0.000 1.000 10000.000 0.000 -1.505
84 252.00 1500.00 567 911 0.000 0.000 0.000 1.000 10000.000 0.000 -1.505
85 255.00 1500.00 571 855 0.000 0.000 0.000 1.000 10000.000 0.000 -1.505
86 258.00 1500.00 543 863 0.000 0.000 0.000 1.000 10000.000 0.000 -1.505
87 261.00 1500.00 584 793 0.000 0.000 0.000 1.000 10000.000 0.000 -1.505
88 264.00 1500.00 557 824 0.000 0.000 0.000 1.000 10000.000 0.000 -1.505
89 267.00 1500.00 610 770 0.000 0.000 0.000 1.000 10000.000 0.000 -1.505
90 270.00 1500.00 573 747 0.000 0.000 0.000 1.000 10000.000 0.000 -1.505
91 273.00 1500.00 567 763 0.000 0.000 0.000 1.000 10000.000 0.000 -1.505
92 276.00 1500.00 558 779 0.000 0.000 0.000 1.000 10000.000 0.000 -1.505
93 279.00 1500.00 550 745 0.000 0.000 0.000 1.000 10000.000 0.000 -1.505
94 282.00 1500.00 595 745 0.000 0.000 0.000 1.000 10000.000 0.000 -1.505
95 285.00 1500.00 594 809 0.000 0.000 0.000 1.000 10000.000 0.000 -1.505
96 288.00 1500.00 570 836 0.000 0.000 0.000 1.000 10000.000 0.000 -1.505
97 291.00 1500.00 550 806 0.000 0.000 0.000 1.000 10000.000 0.000 -1.505
98 294.00 1500.00 594 835 0.000 0.000 0.000 1.000 10000.000 0.000 -1.505
99 297.00 1500.00 560 826 0.000 0.000 0.000 1.000 10000.000 0.000 -1.505
100 300.00 1500.00 601 853 0.000 0.000 0.000 1.000 10000.000 0.000 -1.505
101 303.00 1500.00 535 793 0.000 0.000 0.000 1.000 10000.000 0.000 -1.505
102 306.00 1500.00 552 857 0.000 0.000 0.000 1.000 10000.000 0.000 -1.505
103 309.00 1500.00 543 756 0.000 0.000 0.000 1.000 10000.000 0.000 -1.505
104 312.00 1500.00 547 795 0.000 0.000 0.000 1.000 10000.000 0.000 -1.505
105 315.00 1500.00 578 763 0.000 0.000 0.000 1.000 10000.000 0.000 -1.505
106 318.00 1500.00 586 749 0.000 0.000 0.000 1.000 10000.000 0.000 -1.505
107 321.00 1500.00 530 773 0.000 0.000 0.000 1.000 10000.000 0.000 -1.505
108 324.00 1500.00 584 778 0.000 0.000 0.000 1.000 10000.000 0.000 -1.505
109 327.00 1500.00 549 750 0.000 0.000 0.000 1.000 10000.000 0.000 -1.505
110 330.00 1500.00 581 782 0.000 0.000 0.000 1.000 10000.000 0.000 -1.505
111 333.00 1500.00 566 786 0.000 0.000 0.000 1.000 10000.000 0.000 -1.505
112 336.00 1500.00 602 862 0.000 0.000 0.000 1.000 10000.000 0.000 -1.505
113 339.00 1500.00 573 891 0.000 0.000 0.000 1.000 10000.000 0.000 -1.505
114 342.00 1500.00 577 925 0.000 0.000 0.000 1.000 10000.000 0.000 -1.505
115 345.00 1500.00 625 869 0.000 0.000 0.000 1.000 10000.000 0.000 -1.505
116 348.00 1500.00 556 942 0.000 0.000 0.000 1.000 10000.000 0.000 -1.505
117 351.00 1500.00 592 870 0.000 0.000 0.000 1.000 10000.000 0.000 -1.505
118 354.00 1500.00 577 904 0.000 0.000 0.000 1.000 10000.000 0.000 -1.505
119 357.00 1500.00 519 843 0.000 0.000 0.000 1.000 10000.000 0.000 -1.505
120 360.00 1500.00 573 848 0.000 0.000 0.000 1.000 10000.000 0.000 -1.505
121 363.00 1500.00 578 798 0.000 0.000 0.000 1.000 10000.000 0.000 -1.505
122 366.00 1500.00 608 797 0.000 0.000 0.000 1.000 10000.000 0.000 -1.505
123 369.00 1500.00 603 740 0.000 0.000 0.000 1.000 10000.000 0.000 -1.505
124 372.00 1500.00 578 796 0.000 0.000 0.000 1.000 10000.000 0.000 -1.505
125 375.00 1500.00 606 778 0.000 0.000 0.000 1.000 10000.000 0.000 -1.505
126 378.00 1500.00 606 753 0.000 0.000 0.000 1.000 10000.000 0.000 -1.505
127 381.00 1500.00 612 800 0.000 0.000 0.000 1.000 10000.000 0.000 -1.505
128 384.00 1500.00 528 764 0.000 0.000 0.000 1.000 10000.000 0.000 -1.505
129 387.00 1500.00 534 791 0.000 0.000 0.000 1.000 10000.000 0.000 -1.505
130 390.00 1500.00 580 838 0.000 0.000 0.000 1.000 10000.000 0.000 -1.505
131 393.00 1500.00 575 829 0.000 0.000 0.000 1.000 10000.000 0.000 -1.505
132 396.00 1500.00 591 823 0.000 0.000 0.000 1.000 10000.000 0.000 -1.505
133 399.00 1500.00 561 848 0.000 0.000 0.000 1.000 10000.000 0.000 -1.505
134 402.00 1500.00 583 772 0.000 0.000 0.000 1.000 10000.000 0.000 -1.505
