# BinNR microsec tot-time (s)  O-Beam AUX Ampl(V) f(Hz) phase(deg) chi(pos)
0 0.00 1200.01 77 90 1.100 10000.000 0.000 0.516
1 3.00 1200.01 125 134 1.100 10000.000 0.000 0.516
2 6.00 1200.01 118 166 1.100 10000.000 0.000 0.516
3 9.00 1200.01 134 157 1.100 10000.000 0.000 0.516
4 12.00 1200.01 115 153 1.100 10000.000 0.000 0.516
5 15.00 1200.01 137 147 1.100 10000.000 0.000 0.516
6 18.00 1200.01 130 160 1.100 10000.000 0.000 0.516
7 21.00 1200.01 121 129 1.100 10000.000 0.000 0.516
8 24.00 1200.01 124 166 1.100 10000.000 0.000 0.516
9 27.00 1200.01 123 150 1.100 10000.000 0.000 0.516
10 30.00 1200.01 130 194 1.100 10000.000 0.000 0.516
11 33.00 1200.01 129 171 1.100 10000.000 0.000 0.516
12 36.00 1200.01 124 142 1.100 10000.000 0.000 0.516
13 39.00 1200.01 146 152 1.100 10000.000 0.000 0.516
14 42.00 1200.01 133 173 1.100 10000.000 0.000 0.516
15 45.00 1200.01 114 152 1.100 10000.000 0.000 0.516
16 48.00 1200.01 122 140 1.100 10000.000 0.000 0.516
17 51.00 1200.01 139 168 1.100 10000.000 0.000 0.516
18 54.00 1200.01 123 176 1.100 10000.000 0.000 0.516
19 57.00 1200.01 124 149 1.100 10000.000 0.000 0.516
20 60.00 1200.01 137 159 1.100 10000.000 0.000 0.516
21 63.00 1200.01 141 170 1.100 10000.000 0.000 0.516
22 66.00 1200.01 142 151 1.100 10000.000 0.000 0.516
23 69.00 1200.01 121 173 1.100 10000.000 0.000 0.516
24 72.00 1200.01 157 154 1.100 10000.000 0.000 0.516
25 75.00 1200.01 121 168 1.100 10000.000 0.000 0.516
26 78.00 1200.01 134 152 1.100 10000.000 0.000 0.516
27 81.00 1200.01 119 174 1.100 10000.000 0.000 0.516
28 84.00 1200.01 147 156 1.100 10000.000 0.000 0.516
29 87.00 1200.01 142 163 1.100 10000.000 0.000 0.516
30 90.00 1200.01 131 157 1.100 10000.000 0.000 0.516
31 93.00 1200.01 124 156 1.100 10000.000 0.000 0.516
32 96.00 1200.01 147 166 1.100 10000.000 0.000 0.516
33 99.00 1200.01 145 158 1.100 10000.000 0.000 0.516
34 102.00 1200.01 133 145 1.100 10000.000 0.000 0.516
35 105.00 1200.01 122 141 1.100 10000.000 0.000 0.516
36 108.00 1200.01 96 171 1.100 10000.000 0.000 0.516
37 111.00 1200.01 158 152 1.100 10000.000 0.000 0.516
38 114.00 1200.01 134 172 1.100 10000.000 0.000 0.516
39 117.00 1200.01 133 140 1.100 10000.000 0.000 0.516
40 120.00 1200.01 135 149 1.100 10000.000 0.000 0.516
41 123.00 1200.01 131 178 1.100 10000.000 0.000 0.516
42 126.00 1200.01 110 159 1.100 10000.000 0.000 0.516
43 129.00 1200.01 128 165 1.100 10000.000 0.000 0.516
44 132.00 1200.01 129 154 1.100 10000.000 0.000 0.516
45 135.00 1200.01 143 144 1.100 10000.000 0.000 0.516
46 138.00 1200.01 149 149 1.100 10000.000 0.000 0.516
47 141.00 1200.01 127 140 1.100 10000.000 0.000 0.516
48 144.00 1200.01 130 151 1.100 10000.000 0.000 0.516
49 147.00 1200.01 149 148 1.100 10000.000 0.000 0.516
50 150.00 1200.01 161 164 1.100 10000.000 0.000 0.516
51 153.00 1200.01 125 158 1.100 10000.000 0.000 0.516
52 156.00 1200.01 138 131 1.100 10000.000 0.000 0.516
53 159.00 1200.01 123 156 1.100 10000.000 0.000 0.516
54 162.00 1200.01 127 181 1.100 10000.000 0.000 0.516
55 165.00 1200.01 153 142 1.100 10000.000 0.000 0.516
56 168.00 1200.01 154 164 1.100 10000.000 0.000 0.516
57 171.00 1200.01 136 137 1.100 10000.000 0.000 0.516
58 174.00 1200.01 141 137 1.100 10000.000 0.000 0.516
59 177.00 1200.01 129 136 1.100 10000.000 0.000 0.516
60 180.00 1200.01 141 145 1.100 10000.000 0.000 0.516
61 183.00 1200.01 132 178 1.100 10000.000 0.000 0.516
62 186.00 1200.01 156 191 1.100 10000.000 0.000 0.516
63 189.00 1200.01 138 157 1.100 10000.000 0.000 0.516
64 192.00 1200.01 144 164 1.100 10000.000 0.000 0.516
65 195.00 1200.01 124 147 1.100 10000.000 0.000 0.516
66 198.00 1200.01 156 170 1.100 10000.000 0.000 0.516
67 201.00 1200.01 136 126 1.100 10000.000 0.000 0.516
68 204.00 1200.01 148 163 1.100 10000.000 0.000 0.516
69 207.00 1200.01 135 151 1.100 10000.000 0.000 0.516
70 210.00 1200.01 122 163 1.100 10000.000 0.000 0.516
71 213.00 1200.01 140 140 1.100 10000.000 0.000 0.516
72 216.00 1200.01 130 173 1.100 10000.000 0.000 0.516
73 219.00 1200.01 143 158 1.100 10000.000 0.000 0.516
74 222.00 1200.01 122 154 1.100 10000.000 0.000 0.516
75 225.00 1200.01 117 145 1.100 10000.000 0.000 0.516
76 228.00 1200.01 129 157 1.100 10000.000 0.000 0.516
77 231.00 1200.01 113 166 1.100 10000.000 0.000 0.516
78 234.00 1200.01 128 177 1.100 10000.000 0.000 0.516
79 237.00 1200.01 120 170 1.100 10000.000 0.000 0.516
80 240.00 1200.01 156 110 1.100 10000.000 0.000 0.516
81 243.00 1200.01 133 148 1.100 10000.000 0.000 0.516
82 246.00 1200.01 137 165 1.100 10000.000 0.000 0.516
83 249.00 1200.01 120 131 1.100 10000.000 0.000 0.516
84 252.00 1200.01 137 181 1.100 10000.000 0.000 0.516
85 255.00 1200.01 121 136 1.100 10000.000 0.000 0.516
86 258.00 1200.01 134 174 1.100 10000.000 0.000 0.516
87 261.00 1200.01 113 163 1.100 10000.000 0.000 0.516
88 264.00 1200.01 128 167 1.100 10000.000 0.000 0.516
89 267.00 1200.01 123 114 1.100 10000.000 0.000 0.516
90 270.00 1200.01 135 141 1.100 10000.000 0.000 0.516
91 273.00 1200.01 123 172 1.100 10000.000 0.000 0.516
92 276.00 1200.01 105 137 1.100 10000.000 0.000 0.516
93 279.00 1200.01 143 164 1.100 10000.000 0.000 0.516
94 282.00 1200.01 138 168 1.100 10000.000 0.000 0.516
95 285.00 1200.01 135 163 1.100 10000.000 0.000 0.516
96 288.00 1200.01 113 153 1.100 10000.000 0.000 0.516
97 291.00 1200.01 136 160 1.100 10000.000 0.000 0.516
98 294.00 1200.01 118 167 1.100 10000.000 0.000 0.516
99 297.00 1200.01 147 142 1.100 10000.000 0.000 0.516
100 300.00 1200.01 104 137 1.100 10000.000 0.000 0.516
