# BinNR microsec tot-time (s)  O-Beam H-beam AUX Ampl(V) f(Hz) phase(deg) chi(pos)
0 0.00 900.00 176 603 0 5.155 2000.000 0.000 1.066
1 25.00 900.00 165 483 0 5.155 2000.000 0.000 1.066
2 50.00 900.00 185 441 0 5.155 2000.000 0.000 1.066
3 75.00 900.00 192 349 1 5.155 2000.000 0.000 1.066
4 100.00 900.00 142 248 0 5.155 2000.000 0.000 1.066
5 125.00 900.00 142 299 0 5.155 2000.000 0.000 1.066
6 150.00 900.00 208 347 0 5.155 2000.000 0.000 1.066
7 175.00 900.00 322 341 1 5.155 2000.000 0.000 1.066
8 200.00 900.00 399 317 0 5.155 2000.000 0.000 1.066
9 225.00 900.00 431 271 2 5.155 2000.000 0.000 1.066
10 250.00 900.00 425 287 0 5.155 2000.000 0.000 1.066
11 275.00 900.00 383 316 0 5.155 2000.000 0.000 1.066
12 300.00 900.00 355 394 1 5.155 2000.000 0.000 1.066
13 325.00 900.00 394 523 0 5.155 2000.000 0.000 1.066
14 350.00 900.00 400 592 0 5.155 2000.000 0.000 1.066
15 375.00 900.00 447 547 1 5.155 2000.000 0.000 1.066
16 400.00 900.00 360 525 0 5.155 2000.000 0.000 1.066
17 425.00 900.00 268 556 1 5.155 2000.000 0.000 1.066
18 450.00 900.00 174 557 0 5.155 2000.000 0.000 1.066
19 475.00 900.00 157 571 0 5.155 2000.000 0.000 1.066
20 500.00 900.00 160 573 0 5.155 2000.000 0.000 1.066
21 525.00 900.00 191 541 1 5.155 2000.000 0.000 1.066
22 550.00 900.00 182 409 0 5.155 2000.000 0.000 1.066
23 575.00 900.00 165 355 0 5.155 2000.000 0.000 1.066
24 600.00 900.00 147 284 0 5.155 2000.000 0.000 1.066
25 625.00 900.00 143 298 1 5.155 2000.000 0.000 1.066
26 650.00 900.00 210 350 1 5.155 2000.000 0.000 1.066
27 675.00 900.00 338 337 0 5.155 2000.000 0.000 1.066
28 700.00 900.00 389 320 1 5.155 2000.000 0.000 1.066
29 725.00 900.00 429 304 0 5.155 2000.000 0.000 1.066
30 750.00 900.00 396 274 0 5.155 2000.000 0.000 1.066
31 775.00 900.00 374 322 0 5.155 2000.000 0.000 1.066
32 800.00 900.00 385 391 1 5.155 2000.000 0.000 1.066
33 825.00 900.00 366 479 0 5.155 2000.000 0.000 1.066
34 850.00 900.00 410 604 0 5.155 2000.000 0.000 1.066
35 875.00 900.00 405 573 2 5.155 2000.000 0.000 1.066
36 900.00 900.00 409 562 1 5.155 2000.000 0.000 1.066
37 925.00 900.00 274 544 0 5.155 2000.000 0.000 1.066
38 950.00 900.00 169 553 1 5.155 2000.000 0.000 1.066
39 975.00 900.00 127 566 2 5.155 2000.000 0.000 1.066
