# BinNR microsec tot-time (s)  O-Beam H-beam AUX Ampl(V) f(Hz) phase(deg) chi(pos)
0 0.00 900.00 252 553 1 5.155 2000.000 0.000 1.362
1 25.00 900.00 299 604 0 5.155 2000.000 0.000 1.362
2 50.00 900.00 294 561 1 5.155 2000.000 0.000 1.362
3 75.00 900.00 279 441 0 5.155 2000.000 0.000 1.362
4 100.00 900.00 252 359 2 5.155 2000.000 0.000 1.362
5 125.00 900.00 156 294 2 5.155 2000.000 0.000 1.362
6 150.00 900.00 148 297 1 5.155 2000.000 0.000 1.362
7 175.00 900.00 204 298 0 5.155 2000.000 0.000 1.362
8 200.00 900.00 277 282 0 5.155 2000.000 0.000 1.362
9 225.00 900.00 392 304 1 5.155 2000.000 0.000 1.362
10 250.00 900.00 431 331 1 5.155 2000.000 0.000 1.362
11 275.00 900.00 401 434 0 5.155 2000.000 0.000 1.362
12 300.00 900.00 420 553 0 5.155 2000.000 0.000 1.362
13 325.00 900.00 424 564 2 5.155 2000.000 0.000 1.362
14 350.00 900.00 406 543 1 5.155 2000.000 0.000 1.362
15 375.00 900.00 338 472 2 5.155 2000.000 0.000 1.362
16 400.00 900.00 229 446 2 5.155 2000.000 0.000 1.362
17 425.00 900.00 158 432 1 5.155 2000.000 0.000 1.362
18 450.00 900.00 124 453 0 5.155 2000.000 0.000 1.362
19 475.00 900.00 181 485 0 5.155 2000.000 0.000 1.362
20 500.00 900.00 249 530 2 5.155 2000.000 0.000 1.362
21 525.00 900.00 266 555 2 5.155 2000.000 0.000 1.362
22 550.00 900.00 297 554 0 5.155 2000.000 0.000 1.362
23 575.00 900.00 269 476 0 5.155 2000.000 0.000 1.362
24 600.00 900.00 219 353 1 5.155 2000.000 0.000 1.362
25 625.00 900.00 161 306 0 5.155 2000.000 0.000 1.362
26 650.00 900.00 129 272 2 5.155 2000.000 0.000 1.362
27 675.00 900.00 211 305 1 5.155 2000.000 0.000 1.362
28 700.00 900.00 315 285 0 5.155 2000.000 0.000 1.362
29 725.00 900.00 354 288 0 5.155 2000.000 0.000 1.362
30 750.00 900.00 417 323 1 5.155 2000.000 0.000 1.362
31 775.00 900.00 429 394 2 5.155 2000.000 0.000 1.362
32 800.00 900.00 464 520 0 5.155 2000.000 0.000 1.362
33 825.00 900.00 409 588 1 5.155 2000.000 0.000 1.362
34 850.00 900.00 430 568 0 5.155 2000.000 0.000 1.362
35 875.00 900.00 345 488 1 5.155 2000.000 0.000 1.362
36 900.00 900.00 237 466 0 5.155 2000.000 0.000 1.362
37 925.00 900.00 165 466 1 5.155 2000.000 0.000 1.362
38 950.00 900.00 163 438 1 5.155 2000.000 0.000 1.362
39 975.00 900.00 169 490 0 5.155 2000.000 0.000 1.362
