# BinNR microsec tot-time (s)  O-Beam H-beam AUX Ampl(V) f(Hz) phase(deg) chi(pos)
0 0.00 1200.00 101 1222 131 0.000 0.172 3000.000 -1.362
1 25.00 1200.00 98 1230 135 0.000 0.172 3000.000 -1.362
2 50.00 1200.00 88 1289 126 0.000 0.172 3000.000 -1.362
3 75.00 1200.00 83 1270 126 0.000 0.172 3000.000 -1.362
4 100.00 1200.00 85 1270 101 0.000 0.172 3000.000 -1.362
5 125.00 1200.00 79 1313 126 0.000 0.172 3000.000 -1.362
6 150.00 1200.00 66 1245 130 0.000 0.172 3000.000 -1.362
7 175.00 1200.00 78 1282 155 0.000 0.172 3000.000 -1.362
8 200.00 1200.00 66 1214 146 0.000 0.172 3000.000 -1.362
9 225.00 1200.00 71 1147 161 0.000 0.172 3000.000 -1.362
10 250.00 1200.00 64 1274 163 0.000 0.172 3000.000 -1.362
11 275.00 1200.00 78 1228 183 0.000 0.172 3000.000 -1.362
12 300.00 1200.00 77 1220 149 0.000 0.172 3000.000 -1.362
13 325.00 1200.00 78 1308 144 0.000 0.172 3000.000 -1.362
14 350.00 1200.00 90 1256 115 0.000 0.172 3000.000 -1.362
15 375.00 1200.00 82 1340 128 0.000 0.172 3000.000 -1.362
16 400.00 1200.00 97 1250 114 0.000 0.172 3000.000 -1.362
17 425.00 1200.00 95 1309 120 0.000 0.172 3000.000 -1.362
18 450.00 1200.00 76 1292 127 0.000 0.172 3000.000 -1.362
19 475.00 1200.00 66 1288 124 0.000 0.172 3000.000 -1.362
20 500.00 1200.00 54 1253 148 0.000 0.172 3000.000 -1.362
21 525.00 1200.00 68 1190 138 0.000 0.172 3000.000 -1.362
22 550.00 1200.00 69 1177 147 0.000 0.172 3000.000 -1.362
23 575.00 1200.00 89 1149 145 0.000 0.172 3000.000 -1.362
24 600.00 1200.00 68 1204 164 0.000 0.172 3000.000 -1.362
25 625.00 1200.00 82 1224 143 0.000 0.172 3000.000 -1.362
26 650.00 1200.00 84 1218 137 0.000 0.172 3000.000 -1.362
27 675.00 1200.00 81 1207 124 0.000 0.172 3000.000 -1.362
28 700.00 1200.00 88 1223 107 0.000 0.172 3000.000 -1.362
29 725.00 1200.00 79 1289 116 0.000 0.172 3000.000 -1.362
30 750.00 1200.00 94 1271 119 0.000 0.172 3000.000 -1.362
31 775.00 1200.00 98 1232 123 0.000 0.172 3000.000 -1.362
32 800.00 1200.00 67 1258 130 0.000 0.172 3000.000 -1.362
33 825.00 1200.00 57 1230 148 0.000 0.172 3000.000 -1.362
34 850.00 1200.00 66 1195 135 0.000 0.172 3000.000 -1.362
35 875.00 1200.00 69 1187 176 0.000 0.172 3000.000 -1.362
36 900.00 1200.00 62 1231 169 0.000 0.172 3000.000 -1.362
37 925.00 1200.00 63 1196 144 0.000 0.172 3000.000 -1.362
38 950.00 1200.00 76 1226 175 0.000 0.172 3000.000 -1.362
39 975.00 1200.00 86 1212 162 0.000 0.172 3000.000 -1.362
