# BinNR microsec tot-time (s)  O-Beam H-beam AUX Ampl(V) f(Hz) phase(deg) chi(pos)
0 0.00 1200.00 69 1330 88 0.000 0.172 3000.000 0.791
1 25.00 1200.00 82 1292 101 0.000 0.172 3000.000 0.791
2 50.00 1200.00 74 1315 91 0.000 0.172 3000.000 0.791
3 75.00 1200.00 60 1389 119 0.000 0.172 3000.000 0.791
4 100.00 1200.00 59 1335 89 0.000 0.172 3000.000 0.791
5 125.00 1200.00 67 1349 81 0.000 0.172 3000.000 0.791
6 150.00 1200.00 65 1318 98 0.000 0.172 3000.000 0.791
7 175.00 1200.00 54 1338 116 0.000 0.172 3000.000 0.791
8 200.00 1200.00 41 1293 106 0.000 0.172 3000.000 0.791
9 225.00 1200.00 48 1255 106 0.000 0.172 3000.000 0.791
10 250.00 1200.00 48 1339 113 0.000 0.172 3000.000 0.791
11 275.00 1200.00 60 1255 113 0.000 0.172 3000.000 0.791
12 300.00 1200.00 55 1266 96 0.000 0.172 3000.000 0.791
13 325.00 1200.00 61 1246 86 0.000 0.172 3000.000 0.791
14 350.00 1200.00 64 1281 101 0.000 0.172 3000.000 0.791
15 375.00 1200.00 64 1337 85 0.000 0.172 3000.000 0.791
16 400.00 1200.00 62 1311 86 0.000 0.172 3000.000 0.791
17 425.00 1200.00 63 1355 87 0.000 0.172 3000.000 0.791
18 450.00 1200.00 62 1340 68 0.000 0.172 3000.000 0.791
19 475.00 1200.00 58 1289 88 0.000 0.172 3000.000 0.791
20 500.00 1200.00 54 1295 77 0.000 0.172 3000.000 0.791
21 525.00 1200.00 43 1328 91 0.000 0.172 3000.000 0.791
22 550.00 1200.00 60 1294 106 0.000 0.172 3000.000 0.791
23 575.00 1200.00 50 1353 122 0.000 0.172 3000.000 0.791
24 600.00 1200.00 53 1289 109 0.000 0.172 3000.000 0.791
25 625.00 1200.00 54 1291 110 0.000 0.172 3000.000 0.791
26 650.00 1200.00 56 1275 100 0.000 0.172 3000.000 0.791
27 675.00 1200.00 60 1309 95 0.000 0.172 3000.000 0.791
28 700.00 1200.00 66 1274 92 0.000 0.172 3000.000 0.791
29 725.00 1200.00 63 1333 103 0.000 0.172 3000.000 0.791
30 750.00 1200.00 62 1307 75 0.000 0.172 3000.000 0.791
31 775.00 1200.00 64 1311 66 0.000 0.172 3000.000 0.791
32 800.00 1200.00 59 1348 103 0.000 0.172 3000.000 0.791
33 825.00 1200.00 68 1273 99 0.000 0.172 3000.000 0.791
34 850.00 1200.00 45 1328 95 0.000 0.172 3000.000 0.791
35 875.00 1200.00 51 1336 101 0.000 0.172 3000.000 0.791
36 900.00 1200.00 77 1267 96 0.000 0.172 3000.000 0.791
37 925.00 1200.00 51 1226 106 0.000 0.172 3000.000 0.791
38 950.00 1200.00 56 1279 97 0.000 0.172 3000.000 0.791
39 975.00 1200.00 51 1321 82 0.000 0.172 3000.000 0.791
