# BinNR microsec tot-time (s)  O-Beam H-beam AUX Ampl(V) f(Hz) phase(deg) chi(pos)
0 0.00 1200.00 91 1208 237 0.000 0.172 3000.000 1.219
1 25.00 1200.00 104 1060 241 0.000 0.172 3000.000 1.219
2 50.00 1200.00 90 1117 222 0.000 0.172 3000.000 1.219
3 75.00 1200.00 87 1084 306 0.000 0.172 3000.000 1.219
4 100.00 1200.00 101 1079 268 0.000 0.172 3000.000 1.219
5 125.00 1200.00 112 1042 271 0.000 0.172 3000.000 1.219
6 150.00 1200.00 101 1027 232 0.000 0.172 3000.000 1.219
7 175.00 1200.00 118 1133 221 0.000 0.172 3000.000 1.219
8 200.00 1200.00 137 1227 180 0.000 0.172 3000.000 1.219
9 225.00 1200.00 141 1177 183 0.000 0.172 3000.000 1.219
10 250.00 1200.00 132 1167 204 0.000 0.172 3000.000 1.219
11 275.00 1200.00 117 1183 197 0.000 0.172 3000.000 1.219
12 300.00 1200.00 125 1193 227 0.000 0.172 3000.000 1.219
13 325.00 1200.00 88 1198 227 0.000 0.172 3000.000 1.219
14 350.00 1200.00 94 1108 219 0.000 0.172 3000.000 1.219
15 375.00 1200.00 99 1111 281 0.000 0.172 3000.000 1.219
16 400.00 1200.00 81 1112 240 0.000 0.172 3000.000 1.219
17 425.00 1200.00 97 1104 279 0.000 0.172 3000.000 1.219
18 450.00 1200.00 110 1071 284 0.000 0.172 3000.000 1.219
19 475.00 1200.00 103 1084 237 0.000 0.172 3000.000 1.219
20 500.00 1200.00 127 1109 218 0.000 0.172 3000.000 1.219
21 525.00 1200.00 121 1088 185 0.000 0.172 3000.000 1.219
22 550.00 1200.00 128 1164 205 0.000 0.172 3000.000 1.219
23 575.00 1200.00 146 1237 171 0.000 0.172 3000.000 1.219
24 600.00 1200.00 134 1202 175 0.000 0.172 3000.000 1.219
25 625.00 1200.00 101 1200 207 0.000 0.172 3000.000 1.219
26 650.00 1200.00 118 1173 233 0.000 0.172 3000.000 1.219
27 675.00 1200.00 99 1160 196 0.000 0.172 3000.000 1.219
28 700.00 1200.00 96 1126 232 0.000 0.172 3000.000 1.219
29 725.00 1200.00 85 1120 245 0.000 0.172 3000.000 1.219
30 750.00 1200.00 94 1059 244 0.000 0.172 3000.000 1.219
31 775.00 1200.00 108 1071 274 0.000 0.172 3000.000 1.219
32 800.00 1200.00 102 1050 212 0.000 0.172 3000.000 1.219
33 825.00 1200.00 107 1161 221 0.000 0.172 3000.000 1.219
34 850.00 1200.00 113 1128 207 0.000 0.172 3000.000 1.219
35 875.00 1200.00 151 1137 197 0.000 0.172 3000.000 1.219
36 900.00 1200.00 119 1201 185 0.000 0.172 3000.000 1.219
37 925.00 1200.00 128 1165 165 0.000 0.172 3000.000 1.219
38 950.00 1200.00 122 1160 193 0.000 0.172 3000.000 1.219
39 975.00 1200.00 122 1153 202 0.000 0.172 3000.000 1.219
