# BinNR microsec tot-time (s)  O-Beam H-beam AUX Ampl(V) f(Hz) phase(deg) chi(pos)
0 0.00 1200.00 81 1359 137 0.000 0.172 3000.000 1.077
1 25.00 1200.00 51 1188 161 0.000 0.172 3000.000 1.077
2 50.00 1200.00 61 1176 165 0.000 0.172 3000.000 1.077
3 75.00 1200.00 63 1210 176 0.000 0.172 3000.000 1.077
4 100.00 1200.00 74 1245 150 0.000 0.172 3000.000 1.077
5 125.00 1200.00 74 1192 162 0.000 0.172 3000.000 1.077
6 150.00 1200.00 85 1174 128 0.000 0.172 3000.000 1.077
7 175.00 1200.00 83 1229 118 0.000 0.172 3000.000 1.077
8 200.00 1200.00 99 1253 145 0.000 0.172 3000.000 1.077
9 225.00 1200.00 82 1283 114 0.000 0.172 3000.000 1.077
10 250.00 1200.00 86 1296 109 0.000 0.172 3000.000 1.077
11 275.00 1200.00 81 1306 122 0.000 0.172 3000.000 1.077
12 300.00 1200.00 76 1241 120 0.000 0.172 3000.000 1.077
13 325.00 1200.00 64 1214 163 0.000 0.172 3000.000 1.077
14 350.00 1200.00 69 1247 159 0.000 0.172 3000.000 1.077
15 375.00 1200.00 62 1265 183 0.000 0.172 3000.000 1.077
16 400.00 1200.00 56 1179 148 0.000 0.172 3000.000 1.077
17 425.00 1200.00 65 1242 169 0.000 0.172 3000.000 1.077
18 450.00 1200.00 80 1236 188 0.000 0.172 3000.000 1.077
19 475.00 1200.00 76 1240 152 0.000 0.172 3000.000 1.077
20 500.00 1200.00 84 1221 143 0.000 0.172 3000.000 1.077
21 525.00 1200.00 116 1193 139 0.000 0.172 3000.000 1.077
22 550.00 1200.00 79 1268 127 0.000 0.172 3000.000 1.077
23 575.00 1200.00 87 1243 124 0.000 0.172 3000.000 1.077
24 600.00 1200.00 88 1338 115 0.000 0.172 3000.000 1.077
25 625.00 1200.00 76 1328 122 0.000 0.172 3000.000 1.077
26 650.00 1200.00 61 1244 109 0.000 0.172 3000.000 1.077
27 675.00 1200.00 56 1280 143 0.000 0.172 3000.000 1.077
28 700.00 1200.00 55 1236 169 0.000 0.172 3000.000 1.077
29 725.00 1200.00 56 1212 168 0.000 0.172 3000.000 1.077
30 750.00 1200.00 52 1247 189 0.000 0.172 3000.000 1.077
31 775.00 1200.00 78 1217 183 0.000 0.172 3000.000 1.077
32 800.00 1200.00 79 1188 147 0.000 0.172 3000.000 1.077
33 825.00 1200.00 71 1254 159 0.000 0.172 3000.000 1.077
34 850.00 1200.00 87 1311 143 0.000 0.172 3000.000 1.077
35 875.00 1200.00 86 1201 129 0.000 0.172 3000.000 1.077
36 900.00 1200.00 71 1306 129 0.000 0.172 3000.000 1.077
37 925.00 1200.00 105 1279 101 0.000 0.172 3000.000 1.077
38 950.00 1200.00 88 1271 133 0.000 0.172 3000.000 1.077
39 975.00 1200.00 86 1303 132 0.000 0.172 3000.000 1.077
