# BinNR microsec tot-time (s)  O-Beam H-Beam AUX Ampl_1(V) f_1(Hz) phase_1(deg) Ampl_2(V) f_2(Hz) phase_2(deg) chi(pos)
0 0.00 1500.00 258 3263 933 0.740 10000.000 -106.000 0.610 15000.000 0.000 -0.670
1 4.00 1500.00 292 3203 978 0.740 10000.000 -106.000 0.610 15000.000 0.000 -0.670
2 8.00 1500.00 266 3220 982 0.740 10000.000 -106.000 0.610 15000.000 0.000 -0.670
3 12.00 1500.00 257 3310 1003 0.740 10000.000 -106.000 0.610 15000.000 0.000 -0.670
4 16.00 1500.00 307 3197 975 0.740 10000.000 -106.000 0.610 15000.000 0.000 -0.670
5 20.00 1500.00 332 3353 936 0.740 10000.000 -106.000 0.610 15000.000 0.000 -0.670
6 24.00 1500.00 348 3351 906 0.740 10000.000 -106.000 0.610 15000.000 0.000 -0.670
7 28.00 1500.00 346 3402 882 0.740 10000.000 -106.000 0.610 15000.000 0.000 -0.670
8 32.00 1500.00 416 3381 860 0.740 10000.000 -106.000 0.610 15000.000 0.000 -0.670
9 36.00 1500.00 376 3358 833 0.740 10000.000 -106.000 0.610 15000.000 0.000 -0.670
10 40.00 1500.00 407 3219 857 0.740 10000.000 -106.000 0.610 15000.000 0.000 -0.670
11 44.00 1500.00 449 3275 878 0.740 10000.000 -106.000 0.610 15000.000 0.000 -0.670
12 48.00 1500.00 422 3224 919 0.740 10000.000 -106.000 0.610 15000.000 0.000 -0.670
13 52.00 1500.00 388 3164 960 0.740 10000.000 -106.000 0.610 15000.000 0.000 -0.670
14 56.00 1500.00 351 3155 917 0.740 10000.000 -106.000 0.610 15000.000 0.000 -0.670
15 60.00 1500.00 342 3242 995 0.740 10000.000 -106.000 0.610 15000.000 0.000 -0.670
16 64.00 1500.00 306 3304 962 0.740 10000.000 -106.000 0.610 15000.000 0.000 -0.670
17 68.00 1500.00 287 3416 929 0.740 10000.000 -106.000 0.610 15000.000 0.000 -0.670
18 72.00 1500.00 282 3528 927 0.740 10000.000 -106.000 0.610 15000.000 0.000 -0.670
19 76.00 1500.00 267 3578 874 0.740 10000.000 -106.000 0.610 15000.000 0.000 -0.670
20 80.00 1500.00 250 3727 728 0.740 10000.000 -106.000 0.610 15000.000 0.000 -0.670
21 84.00 1500.00 289 3720 675 0.740 10000.000 -106.000 0.610 15000.000 0.000 -0.670
22 88.00 1500.00 287 3818 560 0.740 10000.000 -106.000 0.610 15000.000 0.000 -0.670
23 92.00 1500.00 299 3852 519 0.740 10000.000 -106.000 0.610 15000.000 0.000 -0.670
24 96.00 1500.00 312 3648 512 0.740 10000.000 -106.000 0.610 15000.000 0.000 -0.670
25 100.00 1500.00 327 3562 504 0.740 10000.000 -106.000 0.610 15000.000 0.000 -0.670
26 104.00 1500.00 372 3517 551 0.740 10000.000 -106.000 0.610 15000.000 0.000 -0.670
27 108.00 1500.00 321 3287 628 0.740 10000.000 -106.000 0.610 15000.000 0.000 -0.670
28 112.00 1500.00 382 3156 778 0.740 10000.000 -106.000 0.610 15000.000 0.000 -0.670
29 116.00 1500.00 327 3159 823 0.740 10000.000 -106.000 0.610 15000.000 0.000 -0.670
30 120.00 1500.00 400 2902 974 0.740 10000.000 -106.000 0.610 15000.000 0.000 -0.670
31 124.00 1500.00 324 2841 1140 0.740 10000.000 -106.000 0.610 15000.000 0.000 -0.670
32 128.00 1500.00 305 2857 1207 0.740 10000.000 -106.000 0.610 15000.000 0.000 -0.670
33 132.00 1500.00 375 2912 1220 0.740 10000.000 -106.000 0.610 15000.000 0.000 -0.670
34 136.00 1500.00 352 3016 1220 0.740 10000.000 -106.000 0.610 15000.000 0.000 -0.670
35 140.00 1500.00 311 3061 1314 0.740 10000.000 -106.000 0.610 15000.000 0.000 -0.670
36 144.00 1500.00 331 3218 1224 0.740 10000.000 -106.000 0.610 15000.000 0.000 -0.670
37 148.00 1500.00 372 3308 1084 0.740 10000.000 -106.000 0.610 15000.000 0.000 -0.670
38 152.00 1500.00 349 3559 964 0.740 10000.000 -106.000 0.610 15000.000 0.000 -0.670
39 156.00 1500.00 355 3622 810 0.740 10000.000 -106.000 0.610 15000.000 0.000 -0.670
40 160.00 1500.00 356 3654 722 0.740 10000.000 -106.000 0.610 15000.000 0.000 -0.670
41 164.00 1500.00 351 3767 635 0.740 10000.000 -106.000 0.610 15000.000 0.000 -0.670
42 168.00 1500.00 333 3823 524 0.740 10000.000 -106.000 0.610 15000.000 0.000 -0.670
43 172.00 1500.00 344 3757 566 0.740 10000.000 -106.000 0.610 15000.000 0.000 -0.670
44 176.00 1500.00 382 3756 513 0.740 10000.000 -106.000 0.610 15000.000 0.000 -0.670
45 180.00 1500.00 315 3658 535 0.740 10000.000 -106.000 0.610 15000.000 0.000 -0.670
46 184.00 1500.00 318 3531 603 0.740 10000.000 -106.000 0.610 15000.000 0.000 -0.670
47 188.00 1500.00 291 3399 667 0.740 10000.000 -106.000 0.610 15000.000 0.000 -0.670
48 192.00 1500.00 281 3280 776 0.740 10000.000 -106.000 0.610 15000.000 0.000 -0.670
49 196.00 1500.00 282 3203 828 0.740 10000.000 -106.000 0.610 15000.000 0.000 -0.670
50 200.00 1500.00 0 0 0 0.740 10000.000 -106.000 0.610 15000.000 0.000 -0.670
