# BinNR microsec tot-time (s)  O-Beam H-Beam AUX Ampl_1(V) f_1(Hz) phase_1(deg) Ampl_2(V) f_2(Hz) phase_2(deg) chi(pos)
0 0.00 1500.00 361 3888 443 0.740 10000.000 -106.000 0.610 15000.000 0.000 0.670
1 4.00 1500.00 368 4065 386 0.740 10000.000 -106.000 0.610 15000.000 0.000 0.670
2 8.00 1500.00 338 3903 367 0.740 10000.000 -106.000 0.610 15000.000 0.000 0.670
3 12.00 1500.00 337 3995 368 0.740 10000.000 -106.000 0.610 15000.000 0.000 0.670
4 16.00 1500.00 335 3799 415 0.740 10000.000 -106.000 0.610 15000.000 0.000 0.670
5 20.00 1500.00 297 3941 438 0.740 10000.000 -106.000 0.610 15000.000 0.000 0.670
6 24.00 1500.00 261 3851 438 0.740 10000.000 -106.000 0.610 15000.000 0.000 0.670
7 28.00 1500.00 258 3893 503 0.740 10000.000 -106.000 0.610 15000.000 0.000 0.670
8 32.00 1500.00 224 3877 520 0.740 10000.000 -106.000 0.610 15000.000 0.000 0.670
9 36.00 1500.00 246 3867 553 0.740 10000.000 -106.000 0.610 15000.000 0.000 0.670
10 40.00 1500.00 213 3820 491 0.740 10000.000 -106.000 0.610 15000.000 0.000 0.670
11 44.00 1500.00 247 3945 465 0.740 10000.000 -106.000 0.610 15000.000 0.000 0.670
12 48.00 1500.00 252 4017 432 0.740 10000.000 -106.000 0.610 15000.000 0.000 0.670
13 52.00 1500.00 250 4013 399 0.740 10000.000 -106.000 0.610 15000.000 0.000 0.670
14 56.00 1500.00 252 3811 401 0.740 10000.000 -106.000 0.610 15000.000 0.000 0.670
15 60.00 1500.00 303 4016 401 0.740 10000.000 -106.000 0.610 15000.000 0.000 0.670
16 64.00 1500.00 346 3916 392 0.740 10000.000 -106.000 0.610 15000.000 0.000 0.670
17 68.00 1500.00 286 3653 405 0.740 10000.000 -106.000 0.610 15000.000 0.000 0.670
18 72.00 1500.00 381 3653 461 0.740 10000.000 -106.000 0.610 15000.000 0.000 0.670
19 76.00 1500.00 330 3605 450 0.740 10000.000 -106.000 0.610 15000.000 0.000 0.670
20 80.00 1500.00 363 3459 564 0.740 10000.000 -106.000 0.610 15000.000 0.000 0.670
21 84.00 1500.00 381 3478 638 0.740 10000.000 -106.000 0.610 15000.000 0.000 0.670
22 88.00 1500.00 335 3436 741 0.740 10000.000 -106.000 0.610 15000.000 0.000 0.670
23 92.00 1500.00 333 3334 752 0.740 10000.000 -106.000 0.610 15000.000 0.000 0.670
24 96.00 1500.00 317 3483 867 0.740 10000.000 -106.000 0.610 15000.000 0.000 0.670
25 100.00 1500.00 301 3576 771 0.740 10000.000 -106.000 0.610 15000.000 0.000 0.670
26 104.00 1500.00 271 3609 732 0.740 10000.000 -106.000 0.610 15000.000 0.000 0.670
27 108.00 1500.00 285 3819 692 0.740 10000.000 -106.000 0.610 15000.000 0.000 0.670
28 112.00 1500.00 280 3882 572 0.740 10000.000 -106.000 0.610 15000.000 0.000 0.670
29 116.00 1500.00 260 4029 470 0.740 10000.000 -106.000 0.610 15000.000 0.000 0.670
30 120.00 1500.00 284 4003 380 0.740 10000.000 -106.000 0.610 15000.000 0.000 0.670
31 124.00 1500.00 274 4079 301 0.740 10000.000 -106.000 0.610 15000.000 0.000 0.670
32 128.00 1500.00 284 4176 270 0.740 10000.000 -106.000 0.610 15000.000 0.000 0.670
33 132.00 1500.00 294 4151 284 0.740 10000.000 -106.000 0.610 15000.000 0.000 0.670
34 136.00 1500.00 302 3955 293 0.740 10000.000 -106.000 0.610 15000.000 0.000 0.670
35 140.00 1500.00 273 4078 267 0.740 10000.000 -106.000 0.610 15000.000 0.000 0.670
36 144.00 1500.00 280 3977 299 0.740 10000.000 -106.000 0.610 15000.000 0.000 0.670
37 148.00 1500.00 307 3671 345 0.740 10000.000 -106.000 0.610 15000.000 0.000 0.670
38 152.00 1500.00 311 3629 416 0.740 10000.000 -106.000 0.610 15000.000 0.000 0.670
39 156.00 1500.00 300 3502 529 0.740 10000.000 -106.000 0.610 15000.000 0.000 0.670
40 160.00 1500.00 275 3554 567 0.740 10000.000 -106.000 0.610 15000.000 0.000 0.670
41 164.00 1500.00 304 3400 668 0.740 10000.000 -106.000 0.610 15000.000 0.000 0.670
42 168.00 1500.00 258 3467 810 0.740 10000.000 -106.000 0.610 15000.000 0.000 0.670
43 172.00 1500.00 267 3485 827 0.740 10000.000 -106.000 0.610 15000.000 0.000 0.670
44 176.00 1500.00 259 3450 837 0.740 10000.000 -106.000 0.610 15000.000 0.000 0.670
45 180.00 1500.00 293 3728 760 0.740 10000.000 -106.000 0.610 15000.000 0.000 0.670
46 184.00 1500.00 314 3773 707 0.740 10000.000 -106.000 0.610 15000.000 0.000 0.670
47 188.00 1500.00 354 3760 649 0.740 10000.000 -106.000 0.610 15000.000 0.000 0.670
48 192.00 1500.00 327 3844 527 0.740 10000.000 -106.000 0.610 15000.000 0.000 0.670
49 196.00 1500.00 389 3877 463 0.740 10000.000 -106.000 0.610 15000.000 0.000 0.670
50 200.00 1500.00 0 0 0 0.740 10000.000 -106.000 0.610 15000.000 0.000 0.670
