# BinNR microsec tot-time (s)  O-Beam H-Beam AUX Ampl_1(V) f_1(Hz) phase_1(deg) Ampl_2(V) f_2(Hz) phase_2(deg) chi(pos)
0 0.00 1500.00 511 2335 1574 0.740 10000.000 -106.000 0.610 15000.000 0.000 0.154
1 4.00 1500.00 491 2354 1640 0.740 10000.000 -106.000 0.610 15000.000 0.000 0.154
2 8.00 1500.00 475 2471 1533 0.740 10000.000 -106.000 0.610 15000.000 0.000 0.154
3 12.00 1500.00 521 2656 1525 0.740 10000.000 -106.000 0.610 15000.000 0.000 0.154
4 16.00 1500.00 517 2726 1385 0.740 10000.000 -106.000 0.610 15000.000 0.000 0.154
5 20.00 1500.00 511 2881 1307 0.740 10000.000 -106.000 0.610 15000.000 0.000 0.154
6 24.00 1500.00 535 2912 1212 0.740 10000.000 -106.000 0.610 15000.000 0.000 0.154
7 28.00 1500.00 482 2944 1072 0.740 10000.000 -106.000 0.610 15000.000 0.000 0.154
8 32.00 1500.00 491 2950 998 0.740 10000.000 -106.000 0.610 15000.000 0.000 0.154
9 36.00 1500.00 500 2876 1038 0.740 10000.000 -106.000 0.610 15000.000 0.000 0.154
10 40.00 1500.00 547 2704 1048 0.740 10000.000 -106.000 0.610 15000.000 0.000 0.154
11 44.00 1500.00 533 2654 1217 0.740 10000.000 -106.000 0.610 15000.000 0.000 0.154
12 48.00 1500.00 526 2557 1169 0.740 10000.000 -106.000 0.610 15000.000 0.000 0.154
13 52.00 1500.00 498 2389 1324 0.740 10000.000 -106.000 0.610 15000.000 0.000 0.154
14 56.00 1500.00 531 2379 1439 0.740 10000.000 -106.000 0.610 15000.000 0.000 0.154
15 60.00 1500.00 494 2353 1453 0.740 10000.000 -106.000 0.610 15000.000 0.000 0.154
16 64.00 1500.00 527 2349 1531 0.740 10000.000 -106.000 0.610 15000.000 0.000 0.154
17 68.00 1500.00 527 2245 1622 0.740 10000.000 -106.000 0.610 15000.000 0.000 0.154
18 72.00 1500.00 524 2314 1605 0.740 10000.000 -106.000 0.610 15000.000 0.000 0.154
19 76.00 1500.00 506 2290 1647 0.740 10000.000 -106.000 0.610 15000.000 0.000 0.154
20 80.00 1500.00 577 2389 1530 0.740 10000.000 -106.000 0.610 15000.000 0.000 0.154
21 84.00 1500.00 557 2421 1540 0.740 10000.000 -106.000 0.610 15000.000 0.000 0.154
22 88.00 1500.00 586 2511 1539 0.740 10000.000 -106.000 0.610 15000.000 0.000 0.154
23 92.00 1500.00 545 2603 1429 0.740 10000.000 -106.000 0.610 15000.000 0.000 0.154
24 96.00 1500.00 568 2623 1539 0.740 10000.000 -106.000 0.610 15000.000 0.000 0.154
25 100.00 1500.00 525 2702 1374 0.740 10000.000 -106.000 0.610 15000.000 0.000 0.154
26 104.00 1500.00 556 2600 1383 0.740 10000.000 -106.000 0.610 15000.000 0.000 0.154
27 108.00 1500.00 557 2688 1420 0.740 10000.000 -106.000 0.610 15000.000 0.000 0.154
28 112.00 1500.00 549 2590 1353 0.740 10000.000 -106.000 0.610 15000.000 0.000 0.154
29 116.00 1500.00 528 2539 1248 0.740 10000.000 -106.000 0.610 15000.000 0.000 0.154
30 120.00 1500.00 524 2499 1372 0.740 10000.000 -106.000 0.610 15000.000 0.000 0.154
31 124.00 1500.00 460 2509 1364 0.740 10000.000 -106.000 0.610 15000.000 0.000 0.154
32 128.00 1500.00 471 2406 1411 0.740 10000.000 -106.000 0.610 15000.000 0.000 0.154
33 132.00 1500.00 485 2530 1406 0.740 10000.000 -106.000 0.610 15000.000 0.000 0.154
34 136.00 1500.00 484 2616 1409 0.740 10000.000 -106.000 0.610 15000.000 0.000 0.154
35 140.00 1500.00 446 2507 1424 0.740 10000.000 -106.000 0.610 15000.000 0.000 0.154
36 144.00 1500.00 460 2554 1448 0.740 10000.000 -106.000 0.610 15000.000 0.000 0.154
37 148.00 1500.00 449 2645 1320 0.740 10000.000 -106.000 0.610 15000.000 0.000 0.154
38 152.00 1500.00 510 2594 1391 0.740 10000.000 -106.000 0.610 15000.000 0.000 0.154
39 156.00 1500.00 484 2560 1331 0.740 10000.000 -106.000 0.610 15000.000 0.000 0.154
40 160.00 1500.00 542 2727 1363 0.740 10000.000 -106.000 0.610 15000.000 0.000 0.154
41 164.00 1500.00 521 2523 1355 0.740 10000.000 -106.000 0.610 15000.000 0.000 0.154
42 168.00 1500.00 606 2495 1372 0.740 10000.000 -106.000 0.610 15000.000 0.000 0.154
43 172.00 1500.00 525 2560 1354 0.740 10000.000 -106.000 0.610 15000.000 0.000 0.154
44 176.00 1500.00 544 2403 1491 0.740 10000.000 -106.000 0.610 15000.000 0.000 0.154
45 180.00 1500.00 529 2331 1532 0.740 10000.000 -106.000 0.610 15000.000 0.000 0.154
46 184.00 1500.00 573 2277 1523 0.740 10000.000 -106.000 0.610 15000.000 0.000 0.154
47 188.00 1500.00 509 2290 1599 0.740 10000.000 -106.000 0.610 15000.000 0.000 0.154
48 192.00 1500.00 552 2243 1544 0.740 10000.000 -106.000 0.610 15000.000 0.000 0.154
49 196.00 1500.00 517 2354 1619 0.740 10000.000 -106.000 0.610 15000.000 0.000 0.154
50 200.00 1500.00 0 0 0 0.740 10000.000 -106.000 0.610 15000.000 0.000 0.154
