# BinNR microsec tot-time (s)  O-Beam H-Beam AUX Ampl_1(V) f_1(Hz) phase_1(deg) Ampl_2(V) f_2(Hz) phase_2(deg) chi(pos)
0 0.00 1500.00 338 4034 361 0.740 10000.000 -106.000 0.610 15000.000 0.000 -1.329
1 4.00 1500.00 327 4027 376 0.740 10000.000 -106.000 0.610 15000.000 0.000 -1.329
2 8.00 1500.00 329 3943 360 0.740 10000.000 -106.000 0.610 15000.000 0.000 -1.329
3 12.00 1500.00 298 3947 356 0.740 10000.000 -106.000 0.610 15000.000 0.000 -1.329
4 16.00 1500.00 303 3930 362 0.740 10000.000 -106.000 0.610 15000.000 0.000 -1.329
5 20.00 1500.00 284 3835 353 0.740 10000.000 -106.000 0.610 15000.000 0.000 -1.329
6 24.00 1500.00 283 3908 384 0.740 10000.000 -106.000 0.610 15000.000 0.000 -1.329
7 28.00 1500.00 238 3832 414 0.740 10000.000 -106.000 0.610 15000.000 0.000 -1.329
8 32.00 1500.00 262 3912 432 0.740 10000.000 -106.000 0.610 15000.000 0.000 -1.329
9 36.00 1500.00 231 3911 423 0.740 10000.000 -106.000 0.610 15000.000 0.000 -1.329
10 40.00 1500.00 215 4004 446 0.740 10000.000 -106.000 0.610 15000.000 0.000 -1.329
11 44.00 1500.00 218 3992 404 0.740 10000.000 -106.000 0.610 15000.000 0.000 -1.329
12 48.00 1500.00 233 3955 396 0.740 10000.000 -106.000 0.610 15000.000 0.000 -1.329
13 52.00 1500.00 219 3902 353 0.740 10000.000 -106.000 0.610 15000.000 0.000 -1.329
14 56.00 1500.00 259 3990 313 0.740 10000.000 -106.000 0.610 15000.000 0.000 -1.329
15 60.00 1500.00 293 3989 287 0.740 10000.000 -106.000 0.610 15000.000 0.000 -1.329
16 64.00 1500.00 273 3978 358 0.740 10000.000 -106.000 0.610 15000.000 0.000 -1.329
17 68.00 1500.00 309 3869 378 0.740 10000.000 -106.000 0.610 15000.000 0.000 -1.329
18 72.00 1500.00 343 3734 417 0.740 10000.000 -106.000 0.610 15000.000 0.000 -1.329
19 76.00 1500.00 332 3676 451 0.740 10000.000 -106.000 0.610 15000.000 0.000 -1.329
20 80.00 1500.00 327 3645 549 0.740 10000.000 -106.000 0.610 15000.000 0.000 -1.329
21 84.00 1500.00 324 3562 606 0.740 10000.000 -106.000 0.610 15000.000 0.000 -1.329
22 88.00 1500.00 319 3644 666 0.740 10000.000 -106.000 0.610 15000.000 0.000 -1.329
23 92.00 1500.00 298 3666 671 0.740 10000.000 -106.000 0.610 15000.000 0.000 -1.329
24 96.00 1500.00 299 3560 727 0.740 10000.000 -106.000 0.610 15000.000 0.000 -1.329
25 100.00 1500.00 298 3752 741 0.740 10000.000 -106.000 0.610 15000.000 0.000 -1.329
26 104.00 1500.00 246 3812 658 0.740 10000.000 -106.000 0.610 15000.000 0.000 -1.329
27 108.00 1500.00 265 3907 522 0.740 10000.000 -106.000 0.610 15000.000 0.000 -1.329
28 112.00 1500.00 306 3931 518 0.740 10000.000 -106.000 0.610 15000.000 0.000 -1.329
29 116.00 1500.00 240 3884 431 0.740 10000.000 -106.000 0.610 15000.000 0.000 -1.329
30 120.00 1500.00 253 3989 349 0.740 10000.000 -106.000 0.610 15000.000 0.000 -1.329
31 124.00 1500.00 252 4174 326 0.740 10000.000 -106.000 0.610 15000.000 0.000 -1.329
32 128.00 1500.00 267 4240 290 0.740 10000.000 -106.000 0.610 15000.000 0.000 -1.329
33 132.00 1500.00 246 4104 275 0.740 10000.000 -106.000 0.610 15000.000 0.000 -1.329
34 136.00 1500.00 284 4049 258 0.740 10000.000 -106.000 0.610 15000.000 0.000 -1.329
35 140.00 1500.00 285 4094 279 0.740 10000.000 -106.000 0.610 15000.000 0.000 -1.329
36 144.00 1500.00 273 3921 299 0.740 10000.000 -106.000 0.610 15000.000 0.000 -1.329
37 148.00 1500.00 282 3993 320 0.740 10000.000 -106.000 0.610 15000.000 0.000 -1.329
38 152.00 1500.00 301 3722 395 0.740 10000.000 -106.000 0.610 15000.000 0.000 -1.329
39 156.00 1500.00 273 3715 438 0.740 10000.000 -106.000 0.610 15000.000 0.000 -1.329
40 160.00 1500.00 240 3519 541 0.740 10000.000 -106.000 0.610 15000.000 0.000 -1.329
41 164.00 1500.00 268 3571 628 0.740 10000.000 -106.000 0.610 15000.000 0.000 -1.329
42 168.00 1500.00 254 3527 669 0.740 10000.000 -106.000 0.610 15000.000 0.000 -1.329
43 172.00 1500.00 267 3693 734 0.740 10000.000 -106.000 0.610 15000.000 0.000 -1.329
44 176.00 1500.00 232 3577 725 0.740 10000.000 -106.000 0.610 15000.000 0.000 -1.329
45 180.00 1500.00 297 3570 682 0.740 10000.000 -106.000 0.610 15000.000 0.000 -1.329
46 184.00 1500.00 315 3838 577 0.740 10000.000 -106.000 0.610 15000.000 0.000 -1.329
47 188.00 1500.00 326 3921 588 0.740 10000.000 -106.000 0.610 15000.000 0.000 -1.329
48 192.00 1500.00 335 3885 457 0.740 10000.000 -106.000 0.610 15000.000 0.000 -1.329
49 196.00 1500.00 365 4038 456 0.740 10000.000 -106.000 0.610 15000.000 0.000 -1.329
50 200.00 1500.00 0 0 0 0.740 10000.000 -106.000 0.610 15000.000 0.000 -1.329
