# BinNR microsec tot-time (s)  O-Beam H-Beam AUX Ampl_1(V) f_1(Hz) phase_1(deg) Ampl_2(V) f_2(Hz) phase_2(deg) chi(pos)
0 0.00 1500.00 399 3204 803 0.740 10000.000 -106.000 0.610 15000.000 0.000 -0.505
1 4.00 1500.00 419 3076 913 0.740 10000.000 -106.000 0.610 15000.000 0.000 -0.505
2 8.00 1500.00 428 2923 1000 0.740 10000.000 -106.000 0.610 15000.000 0.000 -0.505
3 12.00 1500.00 454 2748 1111 0.740 10000.000 -106.000 0.610 15000.000 0.000 -0.505
4 16.00 1500.00 423 2668 1185 0.740 10000.000 -106.000 0.610 15000.000 0.000 -0.505
5 20.00 1500.00 435 2470 1287 0.740 10000.000 -106.000 0.610 15000.000 0.000 -0.505
6 24.00 1500.00 423 2494 1384 0.740 10000.000 -106.000 0.610 15000.000 0.000 -0.505
7 28.00 1500.00 462 2451 1490 0.740 10000.000 -106.000 0.610 15000.000 0.000 -0.505
8 32.00 1500.00 402 2509 1544 0.740 10000.000 -106.000 0.610 15000.000 0.000 -0.505
9 36.00 1500.00 416 2550 1544 0.740 10000.000 -106.000 0.610 15000.000 0.000 -0.505
10 40.00 1500.00 414 2606 1471 0.740 10000.000 -106.000 0.610 15000.000 0.000 -0.505
11 44.00 1500.00 418 2845 1487 0.740 10000.000 -106.000 0.610 15000.000 0.000 -0.505
12 48.00 1500.00 444 2849 1410 0.740 10000.000 -106.000 0.610 15000.000 0.000 -0.505
13 52.00 1500.00 465 3048 1333 0.740 10000.000 -106.000 0.610 15000.000 0.000 -0.505
14 56.00 1500.00 457 3114 1102 0.740 10000.000 -106.000 0.610 15000.000 0.000 -0.505
15 60.00 1500.00 456 3345 980 0.740 10000.000 -106.000 0.610 15000.000 0.000 -0.505
16 64.00 1500.00 435 3337 982 0.740 10000.000 -106.000 0.610 15000.000 0.000 -0.505
17 68.00 1500.00 423 3224 868 0.740 10000.000 -106.000 0.610 15000.000 0.000 -0.505
18 72.00 1500.00 453 3272 817 0.740 10000.000 -106.000 0.610 15000.000 0.000 -0.505
19 76.00 1500.00 445 3334 867 0.740 10000.000 -106.000 0.610 15000.000 0.000 -0.505
20 80.00 1500.00 377 3215 838 0.740 10000.000 -106.000 0.610 15000.000 0.000 -0.505
21 84.00 1500.00 401 3007 986 0.740 10000.000 -106.000 0.610 15000.000 0.000 -0.505
22 88.00 1500.00 408 2895 1020 0.740 10000.000 -106.000 0.610 15000.000 0.000 -0.505
23 92.00 1500.00 372 2902 1077 0.740 10000.000 -106.000 0.610 15000.000 0.000 -0.505
24 96.00 1500.00 355 2932 1258 0.740 10000.000 -106.000 0.610 15000.000 0.000 -0.505
25 100.00 1500.00 363 2767 1257 0.740 10000.000 -106.000 0.610 15000.000 0.000 -0.505
26 104.00 1500.00 355 2830 1321 0.740 10000.000 -106.000 0.610 15000.000 0.000 -0.505
27 108.00 1500.00 351 2709 1378 0.740 10000.000 -106.000 0.610 15000.000 0.000 -0.505
28 112.00 1500.00 362 2766 1367 0.740 10000.000 -106.000 0.610 15000.000 0.000 -0.505
29 116.00 1500.00 416 2843 1383 0.740 10000.000 -106.000 0.610 15000.000 0.000 -0.505
30 120.00 1500.00 379 2802 1326 0.740 10000.000 -106.000 0.610 15000.000 0.000 -0.505
31 124.00 1500.00 400 2922 1318 0.740 10000.000 -106.000 0.610 15000.000 0.000 -0.505
32 128.00 1500.00 454 2935 1283 0.740 10000.000 -106.000 0.610 15000.000 0.000 -0.505
33 132.00 1500.00 501 2901 1158 0.740 10000.000 -106.000 0.610 15000.000 0.000 -0.505
34 136.00 1500.00 485 2829 1206 0.740 10000.000 -106.000 0.610 15000.000 0.000 -0.505
35 140.00 1500.00 428 2821 1219 0.740 10000.000 -106.000 0.610 15000.000 0.000 -0.505
36 144.00 1500.00 493 2766 1323 0.740 10000.000 -106.000 0.610 15000.000 0.000 -0.505
37 148.00 1500.00 510 2827 1302 0.740 10000.000 -106.000 0.610 15000.000 0.000 -0.505
38 152.00 1500.00 488 2666 1231 0.740 10000.000 -106.000 0.610 15000.000 0.000 -0.505
39 156.00 1500.00 465 2715 1336 0.740 10000.000 -106.000 0.610 15000.000 0.000 -0.505
40 160.00 1500.00 456 2754 1386 0.740 10000.000 -106.000 0.610 15000.000 0.000 -0.505
41 164.00 1500.00 369 2948 1300 0.740 10000.000 -106.000 0.610 15000.000 0.000 -0.505
42 168.00 1500.00 367 2920 1367 0.740 10000.000 -106.000 0.610 15000.000 0.000 -0.505
43 172.00 1500.00 352 3162 1231 0.740 10000.000 -106.000 0.610 15000.000 0.000 -0.505
44 176.00 1500.00 338 3138 1235 0.740 10000.000 -106.000 0.610 15000.000 0.000 -0.505
45 180.00 1500.00 298 3229 1104 0.740 10000.000 -106.000 0.610 15000.000 0.000 -0.505
46 184.00 1500.00 369 3327 946 0.740 10000.000 -106.000 0.610 15000.000 0.000 -0.505
47 188.00 1500.00 350 3252 935 0.740 10000.000 -106.000 0.610 15000.000 0.000 -0.505
48 192.00 1500.00 371 3409 862 0.740 10000.000 -106.000 0.610 15000.000 0.000 -0.505
49 196.00 1500.00 372 3285 865 0.740 10000.000 -106.000 0.610 15000.000 0.000 -0.505
50 200.00 1500.00 0 0 0 0.740 10000.000 -106.000 0.610 15000.000 0.000 -0.505
