# BinNR microsec tot-time (s)  O-Beam H-Beam AUX Ampl_1(V) f_1(Hz) phase_1(deg) Ampl_2(V) f_2(Hz) phase_2(deg) chi(pos)
0 0.00 1500.00 249 4027 412 0.740 10000.000 -106.000 0.610 15000.000 0.000 -1.176
1 4.00 1500.00 258 4002 389 0.740 10000.000 -106.000 0.610 15000.000 0.000 -1.176
2 8.00 1500.00 214 4031 362 0.740 10000.000 -106.000 0.610 15000.000 0.000 -1.176
3 12.00 1500.00 215 4091 295 0.740 10000.000 -106.000 0.610 15000.000 0.000 -1.176
4 16.00 1500.00 211 4209 251 0.740 10000.000 -106.000 0.610 15000.000 0.000 -1.176
5 20.00 1500.00 228 4062 279 0.740 10000.000 -106.000 0.610 15000.000 0.000 -1.176
6 24.00 1500.00 222 4115 295 0.740 10000.000 -106.000 0.610 15000.000 0.000 -1.176
7 28.00 1500.00 221 4109 310 0.740 10000.000 -106.000 0.610 15000.000 0.000 -1.176
8 32.00 1500.00 191 4106 334 0.740 10000.000 -106.000 0.610 15000.000 0.000 -1.176
9 36.00 1500.00 205 4117 358 0.740 10000.000 -106.000 0.610 15000.000 0.000 -1.176
10 40.00 1500.00 237 4078 323 0.740 10000.000 -106.000 0.610 15000.000 0.000 -1.176
11 44.00 1500.00 218 4198 310 0.740 10000.000 -106.000 0.610 15000.000 0.000 -1.176
12 48.00 1500.00 219 4224 259 0.740 10000.000 -106.000 0.610 15000.000 0.000 -1.176
13 52.00 1500.00 231 3980 287 0.740 10000.000 -106.000 0.610 15000.000 0.000 -1.176
14 56.00 1500.00 232 4025 269 0.740 10000.000 -106.000 0.610 15000.000 0.000 -1.176
15 60.00 1500.00 210 4016 339 0.740 10000.000 -106.000 0.610 15000.000 0.000 -1.176
16 64.00 1500.00 227 3940 360 0.740 10000.000 -106.000 0.610 15000.000 0.000 -1.176
17 68.00 1500.00 215 3917 397 0.740 10000.000 -106.000 0.610 15000.000 0.000 -1.176
18 72.00 1500.00 209 3886 461 0.740 10000.000 -106.000 0.610 15000.000 0.000 -1.176
19 76.00 1500.00 224 3980 421 0.740 10000.000 -106.000 0.610 15000.000 0.000 -1.176
20 80.00 1500.00 239 3948 440 0.740 10000.000 -106.000 0.610 15000.000 0.000 -1.176
21 84.00 1500.00 231 4106 347 0.740 10000.000 -106.000 0.610 15000.000 0.000 -1.176
22 88.00 1500.00 215 4076 350 0.740 10000.000 -106.000 0.610 15000.000 0.000 -1.176
23 92.00 1500.00 236 4070 331 0.740 10000.000 -106.000 0.610 15000.000 0.000 -1.176
24 96.00 1500.00 265 4116 272 0.740 10000.000 -106.000 0.610 15000.000 0.000 -1.176
25 100.00 1500.00 259 4108 250 0.740 10000.000 -106.000 0.610 15000.000 0.000 -1.176
26 104.00 1500.00 297 4118 281 0.740 10000.000 -106.000 0.610 15000.000 0.000 -1.176
27 108.00 1500.00 268 4305 244 0.740 10000.000 -106.000 0.610 15000.000 0.000 -1.176
28 112.00 1500.00 240 4043 283 0.740 10000.000 -106.000 0.610 15000.000 0.000 -1.176
29 116.00 1500.00 255 4192 268 0.740 10000.000 -106.000 0.610 15000.000 0.000 -1.176
30 120.00 1500.00 253 4111 261 0.740 10000.000 -106.000 0.610 15000.000 0.000 -1.176
31 124.00 1500.00 238 4219 251 0.740 10000.000 -106.000 0.610 15000.000 0.000 -1.176
32 128.00 1500.00 240 4128 266 0.740 10000.000 -106.000 0.610 15000.000 0.000 -1.176
33 132.00 1500.00 236 4067 266 0.740 10000.000 -106.000 0.610 15000.000 0.000 -1.176
34 136.00 1500.00 214 4105 270 0.740 10000.000 -106.000 0.610 15000.000 0.000 -1.176
35 140.00 1500.00 231 4136 278 0.740 10000.000 -106.000 0.610 15000.000 0.000 -1.176
36 144.00 1500.00 211 4111 249 0.740 10000.000 -106.000 0.610 15000.000 0.000 -1.176
37 148.00 1500.00 187 4116 270 0.740 10000.000 -106.000 0.610 15000.000 0.000 -1.176
38 152.00 1500.00 244 4090 269 0.740 10000.000 -106.000 0.610 15000.000 0.000 -1.176
39 156.00 1500.00 210 4255 269 0.740 10000.000 -106.000 0.610 15000.000 0.000 -1.176
40 160.00 1500.00 225 4257 263 0.740 10000.000 -106.000 0.610 15000.000 0.000 -1.176
41 164.00 1500.00 240 4097 283 0.740 10000.000 -106.000 0.610 15000.000 0.000 -1.176
42 168.00 1500.00 265 4132 297 0.740 10000.000 -106.000 0.610 15000.000 0.000 -1.176
43 172.00 1500.00 268 4237 241 0.740 10000.000 -106.000 0.610 15000.000 0.000 -1.176
44 176.00 1500.00 251 4114 285 0.740 10000.000 -106.000 0.610 15000.000 0.000 -1.176
45 180.00 1500.00 286 4042 319 0.740 10000.000 -106.000 0.610 15000.000 0.000 -1.176
46 184.00 1500.00 263 4037 332 0.740 10000.000 -106.000 0.610 15000.000 0.000 -1.176
47 188.00 1500.00 275 3990 398 0.740 10000.000 -106.000 0.610 15000.000 0.000 -1.176
48 192.00 1500.00 273 3879 372 0.740 10000.000 -106.000 0.610 15000.000 0.000 -1.176
49 196.00 1500.00 280 3890 450 0.740 10000.000 -106.000 0.610 15000.000 0.000 -1.176
50 200.00 1500.00 0 0 0 0.740 10000.000 -106.000 0.610 15000.000 0.000 -1.176
