# BinNR microsec tot-time (s)  O-Beam H-Beam AUX Ampl_1(V) f_1(Hz) phase_1(deg) Ampl_2(V) f_2(Hz) phase_2(deg) chi(pos)
0 0.00 1500.00 212 4173 265 0.740 10000.000 -106.000 0.610 15000.000 0.000 1.000
1 4.00 1500.00 249 4109 283 0.740 10000.000 -106.000 0.610 15000.000 0.000 1.000
2 8.00 1500.00 220 4202 269 0.740 10000.000 -106.000 0.610 15000.000 0.000 1.000
3 12.00 1500.00 206 4176 232 0.740 10000.000 -106.000 0.610 15000.000 0.000 1.000
4 16.00 1500.00 208 4056 281 0.740 10000.000 -106.000 0.610 15000.000 0.000 1.000
5 20.00 1500.00 186 3922 293 0.740 10000.000 -106.000 0.610 15000.000 0.000 1.000
6 24.00 1500.00 212 3927 369 0.740 10000.000 -106.000 0.610 15000.000 0.000 1.000
7 28.00 1500.00 200 4014 429 0.740 10000.000 -106.000 0.610 15000.000 0.000 1.000
8 32.00 1500.00 191 3999 469 0.740 10000.000 -106.000 0.610 15000.000 0.000 1.000
9 36.00 1500.00 184 4020 507 0.740 10000.000 -106.000 0.610 15000.000 0.000 1.000
10 40.00 1500.00 201 4014 476 0.740 10000.000 -106.000 0.610 15000.000 0.000 1.000
11 44.00 1500.00 219 4003 398 0.740 10000.000 -106.000 0.610 15000.000 0.000 1.000
12 48.00 1500.00 202 4205 368 0.740 10000.000 -106.000 0.610 15000.000 0.000 1.000
13 52.00 1500.00 206 4203 295 0.740 10000.000 -106.000 0.610 15000.000 0.000 1.000
14 56.00 1500.00 226 4159 287 0.740 10000.000 -106.000 0.610 15000.000 0.000 1.000
15 60.00 1500.00 215 4163 257 0.740 10000.000 -106.000 0.610 15000.000 0.000 1.000
16 64.00 1500.00 215 4231 287 0.740 10000.000 -106.000 0.610 15000.000 0.000 1.000
17 68.00 1500.00 186 4175 281 0.740 10000.000 -106.000 0.610 15000.000 0.000 1.000
18 72.00 1500.00 193 4159 290 0.740 10000.000 -106.000 0.610 15000.000 0.000 1.000
19 76.00 1500.00 200 4177 266 0.740 10000.000 -106.000 0.610 15000.000 0.000 1.000
20 80.00 1500.00 189 4116 290 0.740 10000.000 -106.000 0.610 15000.000 0.000 1.000
21 84.00 1500.00 212 4212 306 0.740 10000.000 -106.000 0.610 15000.000 0.000 1.000
22 88.00 1500.00 237 4127 272 0.740 10000.000 -106.000 0.610 15000.000 0.000 1.000
23 92.00 1500.00 207 4109 264 0.740 10000.000 -106.000 0.610 15000.000 0.000 1.000
24 96.00 1500.00 221 4133 293 0.740 10000.000 -106.000 0.610 15000.000 0.000 1.000
25 100.00 1500.00 243 4172 304 0.740 10000.000 -106.000 0.610 15000.000 0.000 1.000
26 104.00 1500.00 253 4087 306 0.740 10000.000 -106.000 0.610 15000.000 0.000 1.000
27 108.00 1500.00 244 4176 325 0.740 10000.000 -106.000 0.610 15000.000 0.000 1.000
28 112.00 1500.00 210 4222 273 0.740 10000.000 -106.000 0.610 15000.000 0.000 1.000
29 116.00 1500.00 227 4149 285 0.740 10000.000 -106.000 0.610 15000.000 0.000 1.000
30 120.00 1500.00 219 4178 312 0.740 10000.000 -106.000 0.610 15000.000 0.000 1.000
31 124.00 1500.00 245 4201 277 0.740 10000.000 -106.000 0.610 15000.000 0.000 1.000
32 128.00 1500.00 207 4233 273 0.740 10000.000 -106.000 0.610 15000.000 0.000 1.000
33 132.00 1500.00 238 4110 284 0.740 10000.000 -106.000 0.610 15000.000 0.000 1.000
34 136.00 1500.00 221 4286 264 0.740 10000.000 -106.000 0.610 15000.000 0.000 1.000
35 140.00 1500.00 225 4196 255 0.740 10000.000 -106.000 0.610 15000.000 0.000 1.000
36 144.00 1500.00 241 4093 272 0.740 10000.000 -106.000 0.610 15000.000 0.000 1.000
37 148.00 1500.00 221 4088 286 0.740 10000.000 -106.000 0.610 15000.000 0.000 1.000
38 152.00 1500.00 215 4178 290 0.740 10000.000 -106.000 0.610 15000.000 0.000 1.000
39 156.00 1500.00 225 4293 318 0.740 10000.000 -106.000 0.610 15000.000 0.000 1.000
40 160.00 1500.00 219 4190 340 0.740 10000.000 -106.000 0.610 15000.000 0.000 1.000
41 164.00 1500.00 190 4269 307 0.740 10000.000 -106.000 0.610 15000.000 0.000 1.000
42 168.00 1500.00 221 4132 291 0.740 10000.000 -106.000 0.610 15000.000 0.000 1.000
43 172.00 1500.00 220 4231 288 0.740 10000.000 -106.000 0.610 15000.000 0.000 1.000
44 176.00 1500.00 231 4289 241 0.740 10000.000 -106.000 0.610 15000.000 0.000 1.000
45 180.00 1500.00 216 4247 240 0.740 10000.000 -106.000 0.610 15000.000 0.000 1.000
46 184.00 1500.00 250 4079 266 0.740 10000.000 -106.000 0.610 15000.000 0.000 1.000
47 188.00 1500.00 208 4099 289 0.740 10000.000 -106.000 0.610 15000.000 0.000 1.000
48 192.00 1500.00 234 4157 294 0.740 10000.000 -106.000 0.610 15000.000 0.000 1.000
49 196.00 1500.00 222 4235 288 0.740 10000.000 -106.000 0.610 15000.000 0.000 1.000
50 200.00 1500.00 0 0 0 0.740 10000.000 -106.000 0.610 15000.000 0.000 1.000
