# BinNR microsec tot-time (s)  O-Beam H-Beam AUX Ampl_1(V) f_1(Hz) phase_1(deg) Ampl_2(V) f_2(Hz) phase_2(deg) chi(pos)
0 0.00 1500.00 397 3694 696 0.740 10000.000 -106.000 0.610 15000.000 0.000 -1.505
1 4.00 1500.00 451 3648 646 0.740 10000.000 -106.000 0.610 15000.000 0.000 -1.505
2 8.00 1500.00 388 3559 617 0.740 10000.000 -106.000 0.610 15000.000 0.000 -1.505
3 12.00 1500.00 435 3563 637 0.740 10000.000 -106.000 0.610 15000.000 0.000 -1.505
4 16.00 1500.00 399 3467 635 0.740 10000.000 -106.000 0.610 15000.000 0.000 -1.505
5 20.00 1500.00 398 3315 650 0.740 10000.000 -106.000 0.610 15000.000 0.000 -1.505
6 24.00 1500.00 318 3503 704 0.740 10000.000 -106.000 0.610 15000.000 0.000 -1.505
7 28.00 1500.00 334 3390 748 0.740 10000.000 -106.000 0.610 15000.000 0.000 -1.505
8 32.00 1500.00 291 3426 738 0.740 10000.000 -106.000 0.610 15000.000 0.000 -1.505
9 36.00 1500.00 321 3381 787 0.740 10000.000 -106.000 0.610 15000.000 0.000 -1.505
10 40.00 1500.00 280 3448 759 0.740 10000.000 -106.000 0.610 15000.000 0.000 -1.505
11 44.00 1500.00 316 3696 727 0.740 10000.000 -106.000 0.610 15000.000 0.000 -1.505
12 48.00 1500.00 271 3613 688 0.740 10000.000 -106.000 0.610 15000.000 0.000 -1.505
13 52.00 1500.00 313 3668 652 0.740 10000.000 -106.000 0.610 15000.000 0.000 -1.505
14 56.00 1500.00 300 3569 613 0.740 10000.000 -106.000 0.610 15000.000 0.000 -1.505
15 60.00 1500.00 353 3529 605 0.740 10000.000 -106.000 0.610 15000.000 0.000 -1.505
16 64.00 1500.00 357 3501 623 0.740 10000.000 -106.000 0.610 15000.000 0.000 -1.505
17 68.00 1500.00 440 3578 643 0.740 10000.000 -106.000 0.610 15000.000 0.000 -1.505
18 72.00 1500.00 413 3269 679 0.740 10000.000 -106.000 0.610 15000.000 0.000 -1.505
19 76.00 1500.00 422 3202 741 0.740 10000.000 -106.000 0.610 15000.000 0.000 -1.505
20 80.00 1500.00 474 3136 869 0.740 10000.000 -106.000 0.610 15000.000 0.000 -1.505
21 84.00 1500.00 429 2971 945 0.740 10000.000 -106.000 0.610 15000.000 0.000 -1.505
22 88.00 1500.00 447 3000 1019 0.740 10000.000 -106.000 0.610 15000.000 0.000 -1.505
23 92.00 1500.00 423 2981 1119 0.740 10000.000 -106.000 0.610 15000.000 0.000 -1.505
24 96.00 1500.00 409 3036 1140 0.740 10000.000 -106.000 0.610 15000.000 0.000 -1.505
25 100.00 1500.00 409 3149 1124 0.740 10000.000 -106.000 0.610 15000.000 0.000 -1.505
26 104.00 1500.00 305 3274 1129 0.740 10000.000 -106.000 0.610 15000.000 0.000 -1.505
27 108.00 1500.00 346 3395 1017 0.740 10000.000 -106.000 0.610 15000.000 0.000 -1.505
28 112.00 1500.00 350 3605 878 0.740 10000.000 -106.000 0.610 15000.000 0.000 -1.505
29 116.00 1500.00 329 3579 732 0.740 10000.000 -106.000 0.610 15000.000 0.000 -1.505
30 120.00 1500.00 318 3756 644 0.740 10000.000 -106.000 0.610 15000.000 0.000 -1.505
31 124.00 1500.00 324 3739 502 0.740 10000.000 -106.000 0.610 15000.000 0.000 -1.505
32 128.00 1500.00 353 3919 443 0.740 10000.000 -106.000 0.610 15000.000 0.000 -1.505
33 132.00 1500.00 311 3835 380 0.740 10000.000 -106.000 0.610 15000.000 0.000 -1.505
34 136.00 1500.00 329 3794 419 0.740 10000.000 -106.000 0.610 15000.000 0.000 -1.505
35 140.00 1500.00 327 3706 413 0.740 10000.000 -106.000 0.610 15000.000 0.000 -1.505
36 144.00 1500.00 301 3565 463 0.740 10000.000 -106.000 0.610 15000.000 0.000 -1.505
37 148.00 1500.00 395 3447 568 0.740 10000.000 -106.000 0.610 15000.000 0.000 -1.505
38 152.00 1500.00 306 3246 584 0.740 10000.000 -106.000 0.610 15000.000 0.000 -1.505
39 156.00 1500.00 323 3122 773 0.740 10000.000 -106.000 0.610 15000.000 0.000 -1.505
40 160.00 1500.00 363 3009 896 0.740 10000.000 -106.000 0.610 15000.000 0.000 -1.505
41 164.00 1500.00 353 3040 995 0.740 10000.000 -106.000 0.610 15000.000 0.000 -1.505
42 168.00 1500.00 353 2965 1052 0.740 10000.000 -106.000 0.610 15000.000 0.000 -1.505
43 172.00 1500.00 334 2955 1062 0.740 10000.000 -106.000 0.610 15000.000 0.000 -1.505
44 176.00 1500.00 332 3173 1160 0.740 10000.000 -106.000 0.610 15000.000 0.000 -1.505
45 180.00 1500.00 386 3237 1068 0.740 10000.000 -106.000 0.610 15000.000 0.000 -1.505
46 184.00 1500.00 376 3314 1023 0.740 10000.000 -106.000 0.610 15000.000 0.000 -1.505
47 188.00 1500.00 395 3518 975 0.740 10000.000 -106.000 0.610 15000.000 0.000 -1.505
48 192.00 1500.00 410 3564 840 0.740 10000.000 -106.000 0.610 15000.000 0.000 -1.505
49 196.00 1500.00 441 3494 768 0.740 10000.000 -106.000 0.610 15000.000 0.000 -1.505
50 200.00 1500.00 0 0 0 0.740 10000.000 -106.000 0.610 15000.000 0.000 -1.505
