# BinNR microsec tot-time (s)  O-Beam H-Beam AUX Ampl_1(V) f_1(Hz) phase_1(deg) Ampl_2(V) f_2(Hz) phase_2(deg) chi(pos)
0 0.00 1500.00 449 2714 1185 0.740 10000.000 -106.000 0.610 15000.000 0.000 -0.330
1 4.00 1500.00 512 2556 1203 0.740 10000.000 -106.000 0.610 15000.000 0.000 -0.330
2 8.00 1500.00 516 2546 1358 0.740 10000.000 -106.000 0.610 15000.000 0.000 -0.330
3 12.00 1500.00 517 2357 1369 0.740 10000.000 -106.000 0.610 15000.000 0.000 -0.330
4 16.00 1500.00 540 2350 1542 0.740 10000.000 -106.000 0.610 15000.000 0.000 -0.330
5 20.00 1500.00 481 2285 1565 0.740 10000.000 -106.000 0.610 15000.000 0.000 -0.330
6 24.00 1500.00 476 2277 1612 0.740 10000.000 -106.000 0.610 15000.000 0.000 -0.330
7 28.00 1500.00 460 2199 1613 0.740 10000.000 -106.000 0.610 15000.000 0.000 -0.330
8 32.00 1500.00 489 2210 1669 0.740 10000.000 -106.000 0.610 15000.000 0.000 -0.330
9 36.00 1500.00 519 2303 1681 0.740 10000.000 -106.000 0.610 15000.000 0.000 -0.330
10 40.00 1500.00 544 2342 1665 0.740 10000.000 -106.000 0.610 15000.000 0.000 -0.330
11 44.00 1500.00 503 2338 1627 0.740 10000.000 -106.000 0.610 15000.000 0.000 -0.330
12 48.00 1500.00 462 2527 1534 0.740 10000.000 -106.000 0.610 15000.000 0.000 -0.330
13 52.00 1500.00 506 2628 1572 0.740 10000.000 -106.000 0.610 15000.000 0.000 -0.330
14 56.00 1500.00 510 2745 1462 0.740 10000.000 -106.000 0.610 15000.000 0.000 -0.330
15 60.00 1500.00 532 2800 1319 0.740 10000.000 -106.000 0.610 15000.000 0.000 -0.330
16 64.00 1500.00 533 2912 1266 0.740 10000.000 -106.000 0.610 15000.000 0.000 -0.330
17 68.00 1500.00 518 2816 1187 0.740 10000.000 -106.000 0.610 15000.000 0.000 -0.330
18 72.00 1500.00 527 2896 1188 0.740 10000.000 -106.000 0.610 15000.000 0.000 -0.330
19 76.00 1500.00 511 2756 1211 0.740 10000.000 -106.000 0.610 15000.000 0.000 -0.330
20 80.00 1500.00 514 2701 1220 0.740 10000.000 -106.000 0.610 15000.000 0.000 -0.330
21 84.00 1500.00 465 2690 1386 0.740 10000.000 -106.000 0.610 15000.000 0.000 -0.330
22 88.00 1500.00 428 2538 1356 0.740 10000.000 -106.000 0.610 15000.000 0.000 -0.330
23 92.00 1500.00 466 2503 1408 0.740 10000.000 -106.000 0.610 15000.000 0.000 -0.330
24 96.00 1500.00 396 2423 1488 0.740 10000.000 -106.000 0.610 15000.000 0.000 -0.330
25 100.00 1500.00 446 2355 1488 0.740 10000.000 -106.000 0.610 15000.000 0.000 -0.330
26 104.00 1500.00 453 2458 1577 0.740 10000.000 -106.000 0.610 15000.000 0.000 -0.330
27 108.00 1500.00 442 2285 1538 0.740 10000.000 -106.000 0.610 15000.000 0.000 -0.330
28 112.00 1500.00 415 2428 1551 0.740 10000.000 -106.000 0.610 15000.000 0.000 -0.330
29 116.00 1500.00 468 2368 1619 0.740 10000.000 -106.000 0.610 15000.000 0.000 -0.330
30 120.00 1500.00 453 2356 1539 0.740 10000.000 -106.000 0.610 15000.000 0.000 -0.330
31 124.00 1500.00 487 2481 1534 0.740 10000.000 -106.000 0.610 15000.000 0.000 -0.330
32 128.00 1500.00 530 2476 1448 0.740 10000.000 -106.000 0.610 15000.000 0.000 -0.330
33 132.00 1500.00 543 2481 1486 0.740 10000.000 -106.000 0.610 15000.000 0.000 -0.330
34 136.00 1500.00 554 2419 1458 0.740 10000.000 -106.000 0.610 15000.000 0.000 -0.330
35 140.00 1500.00 594 2494 1440 0.740 10000.000 -106.000 0.610 15000.000 0.000 -0.330
36 144.00 1500.00 567 2450 1499 0.740 10000.000 -106.000 0.610 15000.000 0.000 -0.330
37 148.00 1500.00 565 2359 1526 0.740 10000.000 -106.000 0.610 15000.000 0.000 -0.330
38 152.00 1500.00 547 2330 1494 0.740 10000.000 -106.000 0.610 15000.000 0.000 -0.330
39 156.00 1500.00 559 2468 1580 0.740 10000.000 -106.000 0.610 15000.000 0.000 -0.330
40 160.00 1500.00 522 2396 1527 0.740 10000.000 -106.000 0.610 15000.000 0.000 -0.330
41 164.00 1500.00 462 2418 1531 0.740 10000.000 -106.000 0.610 15000.000 0.000 -0.330
42 168.00 1500.00 480 2493 1568 0.740 10000.000 -106.000 0.610 15000.000 0.000 -0.330
43 172.00 1500.00 463 2528 1533 0.740 10000.000 -106.000 0.610 15000.000 0.000 -0.330
44 176.00 1500.00 400 2727 1468 0.740 10000.000 -106.000 0.610 15000.000 0.000 -0.330
45 180.00 1500.00 401 2761 1339 0.740 10000.000 -106.000 0.610 15000.000 0.000 -0.330
46 184.00 1500.00 429 2838 1400 0.740 10000.000 -106.000 0.610 15000.000 0.000 -0.330
47 188.00 1500.00 413 2907 1318 0.740 10000.000 -106.000 0.610 15000.000 0.000 -0.330
48 192.00 1500.00 447 2904 1233 0.740 10000.000 -106.000 0.610 15000.000 0.000 -0.330
49 196.00 1500.00 465 2846 1224 0.740 10000.000 -106.000 0.610 15000.000 0.000 -0.330
50 200.00 1500.00 0 0 0 0.740 10000.000 -106.000 0.610 15000.000 0.000 -0.330
