# BinNR microsec tot-time (s)  O-Beam H-Beam AUX Ampl_1(V) f_1(Hz) phase_1(deg) Ampl_2(V) f_2(Hz) phase_2(deg) chi(pos)
0 0.00 1500.00 271 4076 290 0.740 10000.000 -106.000 0.610 15000.000 0.000 -0.835
1 4.00 1500.00 262 3919 276 0.740 10000.000 -106.000 0.610 15000.000 0.000 -0.835
2 8.00 1500.00 219 3831 326 0.740 10000.000 -106.000 0.610 15000.000 0.000 -0.835
3 12.00 1500.00 256 3654 407 0.740 10000.000 -106.000 0.610 15000.000 0.000 -0.835
4 16.00 1500.00 250 3599 486 0.740 10000.000 -106.000 0.610 15000.000 0.000 -0.835
5 20.00 1500.00 296 3578 581 0.740 10000.000 -106.000 0.610 15000.000 0.000 -0.835
6 24.00 1500.00 290 3388 726 0.740 10000.000 -106.000 0.610 15000.000 0.000 -0.835
7 28.00 1500.00 234 3443 818 0.740 10000.000 -106.000 0.610 15000.000 0.000 -0.835
8 32.00 1500.00 257 3410 805 0.740 10000.000 -106.000 0.610 15000.000 0.000 -0.835
9 36.00 1500.00 263 3634 899 0.740 10000.000 -106.000 0.610 15000.000 0.000 -0.835
10 40.00 1500.00 264 3659 865 0.740 10000.000 -106.000 0.610 15000.000 0.000 -0.835
11 44.00 1500.00 261 3743 813 0.740 10000.000 -106.000 0.610 15000.000 0.000 -0.835
12 48.00 1500.00 261 3846 740 0.740 10000.000 -106.000 0.610 15000.000 0.000 -0.835
13 52.00 1500.00 259 3981 621 0.740 10000.000 -106.000 0.610 15000.000 0.000 -0.835
14 56.00 1500.00 276 3914 460 0.740 10000.000 -106.000 0.610 15000.000 0.000 -0.835
15 60.00 1500.00 281 3946 394 0.740 10000.000 -106.000 0.610 15000.000 0.000 -0.835
16 64.00 1500.00 238 4079 330 0.740 10000.000 -106.000 0.610 15000.000 0.000 -0.835
17 68.00 1500.00 270 4141 295 0.740 10000.000 -106.000 0.610 15000.000 0.000 -0.835
18 72.00 1500.00 270 4057 322 0.740 10000.000 -106.000 0.610 15000.000 0.000 -0.835
19 76.00 1500.00 271 4045 329 0.740 10000.000 -106.000 0.610 15000.000 0.000 -0.835
20 80.00 1500.00 239 4065 340 0.740 10000.000 -106.000 0.610 15000.000 0.000 -0.835
21 84.00 1500.00 208 4024 336 0.740 10000.000 -106.000 0.610 15000.000 0.000 -0.835
22 88.00 1500.00 232 3752 397 0.740 10000.000 -106.000 0.610 15000.000 0.000 -0.835
23 92.00 1500.00 211 3822 434 0.740 10000.000 -106.000 0.610 15000.000 0.000 -0.835
24 96.00 1500.00 216 3606 495 0.740 10000.000 -106.000 0.610 15000.000 0.000 -0.835
25 100.00 1500.00 216 3714 560 0.740 10000.000 -106.000 0.610 15000.000 0.000 -0.835
26 104.00 1500.00 217 3745 610 0.740 10000.000 -106.000 0.610 15000.000 0.000 -0.835
27 108.00 1500.00 231 3633 597 0.740 10000.000 -106.000 0.610 15000.000 0.000 -0.835
28 112.00 1500.00 235 3696 619 0.740 10000.000 -106.000 0.610 15000.000 0.000 -0.835
29 116.00 1500.00 252 3724 612 0.740 10000.000 -106.000 0.610 15000.000 0.000 -0.835
30 120.00 1500.00 279 3746 621 0.740 10000.000 -106.000 0.610 15000.000 0.000 -0.835
31 124.00 1500.00 266 3803 549 0.740 10000.000 -106.000 0.610 15000.000 0.000 -0.835
32 128.00 1500.00 299 3832 518 0.740 10000.000 -106.000 0.610 15000.000 0.000 -0.835
33 132.00 1500.00 316 3803 511 0.740 10000.000 -106.000 0.610 15000.000 0.000 -0.835
34 136.00 1500.00 328 3835 503 0.740 10000.000 -106.000 0.610 15000.000 0.000 -0.835
35 140.00 1500.00 337 3815 536 0.740 10000.000 -106.000 0.610 15000.000 0.000 -0.835
36 144.00 1500.00 365 3643 508 0.740 10000.000 -106.000 0.610 15000.000 0.000 -0.835
37 148.00 1500.00 295 3674 533 0.740 10000.000 -106.000 0.610 15000.000 0.000 -0.835
38 152.00 1500.00 306 3701 554 0.740 10000.000 -106.000 0.610 15000.000 0.000 -0.835
39 156.00 1500.00 279 3642 587 0.740 10000.000 -106.000 0.610 15000.000 0.000 -0.835
40 160.00 1500.00 230 3767 592 0.740 10000.000 -106.000 0.610 15000.000 0.000 -0.835
41 164.00 1500.00 247 3921 617 0.740 10000.000 -106.000 0.610 15000.000 0.000 -0.835
42 168.00 1500.00 207 3895 621 0.740 10000.000 -106.000 0.610 15000.000 0.000 -0.835
43 172.00 1500.00 201 3871 559 0.740 10000.000 -106.000 0.610 15000.000 0.000 -0.835
44 176.00 1500.00 238 4076 436 0.740 10000.000 -106.000 0.610 15000.000 0.000 -0.835
45 180.00 1500.00 255 4017 415 0.740 10000.000 -106.000 0.610 15000.000 0.000 -0.835
46 184.00 1500.00 197 4037 365 0.740 10000.000 -106.000 0.610 15000.000 0.000 -0.835
47 188.00 1500.00 201 4052 343 0.740 10000.000 -106.000 0.610 15000.000 0.000 -0.835
48 192.00 1500.00 244 4172 308 0.740 10000.000 -106.000 0.610 15000.000 0.000 -0.835
49 196.00 1500.00 260 4136 269 0.740 10000.000 -106.000 0.610 15000.000 0.000 -0.835
50 200.00 1500.00 0 0 0 0.740 10000.000 -106.000 0.610 15000.000 0.000 -0.835
