# BinNR microsec tot-time (s)  O-Beam H-Beam AUX Ampl_1(V) f_1(Hz) phase_1(deg) Ampl_2(V) f_2(Hz) phase_2(deg) chi(pos)
0 0.00 1500.00 568 2393 1486 0.740 10000.000 -106.000 0.610 15000.000 0.000 -0.176
1 4.00 1500.00 504 2336 1504 0.740 10000.000 -106.000 0.610 15000.000 0.000 -0.176
2 8.00 1500.00 515 2307 1590 0.740 10000.000 -106.000 0.610 15000.000 0.000 -0.176
3 12.00 1500.00 523 2252 1607 0.740 10000.000 -106.000 0.610 15000.000 0.000 -0.176
4 16.00 1500.00 571 2253 1618 0.740 10000.000 -106.000 0.610 15000.000 0.000 -0.176
5 20.00 1500.00 558 2199 1700 0.740 10000.000 -106.000 0.610 15000.000 0.000 -0.176
6 24.00 1500.00 557 2273 1664 0.740 10000.000 -106.000 0.610 15000.000 0.000 -0.176
7 28.00 1500.00 540 2159 1594 0.740 10000.000 -106.000 0.610 15000.000 0.000 -0.176
8 32.00 1500.00 613 2203 1558 0.740 10000.000 -106.000 0.610 15000.000 0.000 -0.176
9 36.00 1500.00 591 2185 1585 0.740 10000.000 -106.000 0.610 15000.000 0.000 -0.176
10 40.00 1500.00 541 2152 1561 0.740 10000.000 -106.000 0.610 15000.000 0.000 -0.176
11 44.00 1500.00 578 2271 1580 0.740 10000.000 -106.000 0.610 15000.000 0.000 -0.176
12 48.00 1500.00 541 2281 1698 0.740 10000.000 -106.000 0.610 15000.000 0.000 -0.176
13 52.00 1500.00 552 2430 1576 0.740 10000.000 -106.000 0.610 15000.000 0.000 -0.176
14 56.00 1500.00 564 2388 1674 0.740 10000.000 -106.000 0.610 15000.000 0.000 -0.176
15 60.00 1500.00 553 2419 1537 0.740 10000.000 -106.000 0.610 15000.000 0.000 -0.176
16 64.00 1500.00 555 2508 1473 0.740 10000.000 -106.000 0.610 15000.000 0.000 -0.176
17 68.00 1500.00 569 2489 1423 0.740 10000.000 -106.000 0.610 15000.000 0.000 -0.176
18 72.00 1500.00 584 2451 1396 0.740 10000.000 -106.000 0.610 15000.000 0.000 -0.176
19 76.00 1500.00 579 2458 1460 0.740 10000.000 -106.000 0.610 15000.000 0.000 -0.176
20 80.00 1500.00 566 2276 1492 0.740 10000.000 -106.000 0.610 15000.000 0.000 -0.176
21 84.00 1500.00 545 2301 1593 0.740 10000.000 -106.000 0.610 15000.000 0.000 -0.176
22 88.00 1500.00 483 2274 1630 0.740 10000.000 -106.000 0.610 15000.000 0.000 -0.176
23 92.00 1500.00 499 2201 1630 0.740 10000.000 -106.000 0.610 15000.000 0.000 -0.176
24 96.00 1500.00 483 2248 1652 0.740 10000.000 -106.000 0.610 15000.000 0.000 -0.176
25 100.00 1500.00 508 2186 1675 0.740 10000.000 -106.000 0.610 15000.000 0.000 -0.176
26 104.00 1500.00 510 2234 1689 0.740 10000.000 -106.000 0.610 15000.000 0.000 -0.176
27 108.00 1500.00 500 2263 1691 0.740 10000.000 -106.000 0.610 15000.000 0.000 -0.176
28 112.00 1500.00 549 2151 1688 0.740 10000.000 -106.000 0.610 15000.000 0.000 -0.176
29 116.00 1500.00 485 2147 1617 0.740 10000.000 -106.000 0.610 15000.000 0.000 -0.176
30 120.00 1500.00 494 2192 1557 0.740 10000.000 -106.000 0.610 15000.000 0.000 -0.176
31 124.00 1500.00 536 2263 1659 0.740 10000.000 -106.000 0.610 15000.000 0.000 -0.176
32 128.00 1500.00 551 2253 1615 0.740 10000.000 -106.000 0.610 15000.000 0.000 -0.176
33 132.00 1500.00 530 2224 1630 0.740 10000.000 -106.000 0.610 15000.000 0.000 -0.176
34 136.00 1500.00 502 2333 1576 0.740 10000.000 -106.000 0.610 15000.000 0.000 -0.176
35 140.00 1500.00 538 2208 1624 0.740 10000.000 -106.000 0.610 15000.000 0.000 -0.176
36 144.00 1500.00 554 2291 1629 0.740 10000.000 -106.000 0.610 15000.000 0.000 -0.176
37 148.00 1500.00 566 2224 1698 0.740 10000.000 -106.000 0.610 15000.000 0.000 -0.176
38 152.00 1500.00 554 2204 1639 0.740 10000.000 -106.000 0.610 15000.000 0.000 -0.176
39 156.00 1500.00 570 2160 1632 0.740 10000.000 -106.000 0.610 15000.000 0.000 -0.176
40 160.00 1500.00 542 2235 1679 0.740 10000.000 -106.000 0.610 15000.000 0.000 -0.176
41 164.00 1500.00 549 2285 1735 0.740 10000.000 -106.000 0.610 15000.000 0.000 -0.176
42 168.00 1500.00 511 2216 1656 0.740 10000.000 -106.000 0.610 15000.000 0.000 -0.176
43 172.00 1500.00 550 2228 1588 0.740 10000.000 -106.000 0.610 15000.000 0.000 -0.176
44 176.00 1500.00 495 2295 1601 0.740 10000.000 -106.000 0.610 15000.000 0.000 -0.176
45 180.00 1500.00 498 2411 1672 0.740 10000.000 -106.000 0.610 15000.000 0.000 -0.176
46 184.00 1500.00 473 2402 1463 0.740 10000.000 -106.000 0.610 15000.000 0.000 -0.176
47 188.00 1500.00 523 2508 1520 0.740 10000.000 -106.000 0.610 15000.000 0.000 -0.176
48 192.00 1500.00 536 2383 1531 0.740 10000.000 -106.000 0.610 15000.000 0.000 -0.176
49 196.00 1500.00 555 2528 1426 0.740 10000.000 -106.000 0.610 15000.000 0.000 -0.176
50 200.00 1500.00 0 0 0 0.740 10000.000 -106.000 0.610 15000.000 0.000 -0.176
