# BinNR microsec tot-time (s)  O-Beam AUX Ampl(V) f(Hz) phase(deg) chi(pos)
0 0.00 1200.00 62 281 1.100 10000.000 0.000 -1.011
1 3.00 1200.00 156 519 1.100 10000.000 0.000 -1.011
2 6.00 1200.00 173 536 1.100 10000.000 0.000 -1.011
3 9.00 1200.00 155 574 1.100 10000.000 0.000 -1.011
4 12.00 1200.00 132 514 1.100 10000.000 0.000 -1.011
5 15.00 1200.00 112 464 1.100 10000.000 0.000 -1.011
6 18.00 1200.00 101 497 1.100 10000.000 0.000 -1.011
7 21.00 1200.00 122 521 1.100 10000.000 0.000 -1.011
8 24.00 1200.00 129 477 1.100 10000.000 0.000 -1.011
9 27.00 1200.00 110 423 1.100 10000.000 0.000 -1.011
10 30.00 1200.00 105 435 1.100 10000.000 0.000 -1.011
11 33.00 1200.00 107 386 1.100 10000.000 0.000 -1.011
12 36.00 1200.00 91 426 1.100 10000.000 0.000 -1.011
13 39.00 1200.00 116 422 1.100 10000.000 0.000 -1.011
14 42.00 1200.00 120 518 1.100 10000.000 0.000 -1.011
15 45.00 1200.00 110 457 1.100 10000.000 0.000 -1.011
16 48.00 1200.00 118 537 1.100 10000.000 0.000 -1.011
17 51.00 1200.00 122 484 1.100 10000.000 0.000 -1.011
18 54.00 1200.00 150 524 1.100 10000.000 0.000 -1.011
19 57.00 1200.00 125 508 1.100 10000.000 0.000 -1.011
20 60.00 1200.00 147 548 1.100 10000.000 0.000 -1.011
21 63.00 1200.00 167 510 1.100 10000.000 0.000 -1.011
22 66.00 1200.00 182 514 1.100 10000.000 0.000 -1.011
23 69.00 1200.00 141 462 1.100 10000.000 0.000 -1.011
24 72.00 1200.00 172 457 1.100 10000.000 0.000 -1.011
25 75.00 1200.00 198 395 1.100 10000.000 0.000 -1.011
26 78.00 1200.00 211 390 1.100 10000.000 0.000 -1.011
27 81.00 1200.00 164 399 1.100 10000.000 0.000 -1.011
28 84.00 1200.00 189 362 1.100 10000.000 0.000 -1.011
29 87.00 1200.00 179 351 1.100 10000.000 0.000 -1.011
30 90.00 1200.00 186 294 1.100 10000.000 0.000 -1.011
31 93.00 1200.00 186 296 1.100 10000.000 0.000 -1.011
32 96.00 1200.00 140 274 1.100 10000.000 0.000 -1.011
33 99.00 1200.00 164 321 1.100 10000.000 0.000 -1.011
34 102.00 1200.00 160 318 1.100 10000.000 0.000 -1.011
35 105.00 1200.00 165 331 1.100 10000.000 0.000 -1.011
36 108.00 1200.00 125 327 1.100 10000.000 0.000 -1.011
37 111.00 1200.00 119 378 1.100 10000.000 0.000 -1.011
38 114.00 1200.00 127 375 1.100 10000.000 0.000 -1.011
39 117.00 1200.00 110 419 1.100 10000.000 0.000 -1.011
40 120.00 1200.00 100 462 1.100 10000.000 0.000 -1.011
41 123.00 1200.00 100 496 1.100 10000.000 0.000 -1.011
42 126.00 1200.00 119 477 1.100 10000.000 0.000 -1.011
43 129.00 1200.00 114 514 1.100 10000.000 0.000 -1.011
44 132.00 1200.00 103 516 1.100 10000.000 0.000 -1.011
45 135.00 1200.00 104 573 1.100 10000.000 0.000 -1.011
46 138.00 1200.00 128 572 1.100 10000.000 0.000 -1.011
47 141.00 1200.00 117 552 1.100 10000.000 0.000 -1.011
48 144.00 1200.00 142 569 1.100 10000.000 0.000 -1.011
49 147.00 1200.00 127 536 1.100 10000.000 0.000 -1.011
50 150.00 1200.00 144 550 1.100 10000.000 0.000 -1.011
51 153.00 1200.00 124 558 1.100 10000.000 0.000 -1.011
52 156.00 1200.00 154 544 1.100 10000.000 0.000 -1.011
53 159.00 1200.00 136 566 1.100 10000.000 0.000 -1.011
54 162.00 1200.00 143 505 1.100 10000.000 0.000 -1.011
55 165.00 1200.00 164 508 1.100 10000.000 0.000 -1.011
56 168.00 1200.00 172 466 1.100 10000.000 0.000 -1.011
57 171.00 1200.00 153 402 1.100 10000.000 0.000 -1.011
58 174.00 1200.00 184 448 1.100 10000.000 0.000 -1.011
59 177.00 1200.00 181 422 1.100 10000.000 0.000 -1.011
60 180.00 1200.00 187 393 1.100 10000.000 0.000 -1.011
61 183.00 1200.00 195 381 1.100 10000.000 0.000 -1.011
62 186.00 1200.00 198 360 1.100 10000.000 0.000 -1.011
63 189.00 1200.00 192 351 1.100 10000.000 0.000 -1.011
64 192.00 1200.00 182 321 1.100 10000.000 0.000 -1.011
65 195.00 1200.00 193 316 1.100 10000.000 0.000 -1.011
66 198.00 1200.00 148 289 1.100 10000.000 0.000 -1.011
67 201.00 1200.00 145 315 1.100 10000.000 0.000 -1.011
68 204.00 1200.00 162 312 1.100 10000.000 0.000 -1.011
69 207.00 1200.00 170 347 1.100 10000.000 0.000 -1.011
70 210.00 1200.00 155 410 1.100 10000.000 0.000 -1.011
71 213.00 1200.00 127 390 1.100 10000.000 0.000 -1.011
72 216.00 1200.00 125 433 1.100 10000.000 0.000 -1.011
73 219.00 1200.00 110 452 1.100 10000.000 0.000 -1.011
74 222.00 1200.00 104 443 1.100 10000.000 0.000 -1.011
75 225.00 1200.00 120 507 1.100 10000.000 0.000 -1.011
76 228.00 1200.00 117 533 1.100 10000.000 0.000 -1.011
77 231.00 1200.00 111 513 1.100 10000.000 0.000 -1.011
78 234.00 1200.00 99 545 1.100 10000.000 0.000 -1.011
79 237.00 1200.00 117 551 1.100 10000.000 0.000 -1.011
80 240.00 1200.00 128 607 1.100 10000.000 0.000 -1.011
81 243.00 1200.00 122 506 1.100 10000.000 0.000 -1.011
82 246.00 1200.00 129 574 1.100 10000.000 0.000 -1.011
83 249.00 1200.00 129 525 1.100 10000.000 0.000 -1.011
84 252.00 1200.00 131 589 1.100 10000.000 0.000 -1.011
85 255.00 1200.00 150 549 1.100 10000.000 0.000 -1.011
86 258.00 1200.00 155 563 1.100 10000.000 0.000 -1.011
87 261.00 1200.00 161 529 1.100 10000.000 0.000 -1.011
88 264.00 1200.00 139 493 1.100 10000.000 0.000 -1.011
89 267.00 1200.00 154 479 1.100 10000.000 0.000 -1.011
90 270.00 1200.00 180 461 1.100 10000.000 0.000 -1.011
91 273.00 1200.00 185 424 1.100 10000.000 0.000 -1.011
92 276.00 1200.00 172 413 1.100 10000.000 0.000 -1.011
93 279.00 1200.00 159 371 1.100 10000.000 0.000 -1.011
94 282.00 1200.00 196 386 1.100 10000.000 0.000 -1.011
95 285.00 1200.00 172 314 1.100 10000.000 0.000 -1.011
96 288.00 1200.00 172 362 1.100 10000.000 0.000 -1.011
97 291.00 1200.00 163 302 1.100 10000.000 0.000 -1.011
98 294.00 1200.00 152 267 1.100 10000.000 0.000 -1.011
99 297.00 1200.00 165 268 1.100 10000.000 0.000 -1.011
100 300.00 1200.00 155 322 1.100 10000.000 0.000 -1.011
101 303.00 1200.00 158 356 1.100 10000.000 0.000 -1.011
102 306.00 1200.00 144 337 1.100 10000.000 0.000 -1.011
103 309.00 1200.00 154 364 1.100 10000.000 0.000 -1.011
104 312.00 1200.00 156 371 1.100 10000.000 0.000 -1.011
105 315.00 1200.00 153 384 1.100 10000.000 0.000 -1.011
106 318.00 1200.00 159 460 1.100 10000.000 0.000 -1.011
107 321.00 1200.00 160 467 1.100 10000.000 0.000 -1.011
108 324.00 1200.00 170 470 1.100 10000.000 0.000 -1.011
109 327.00 1200.00 159 521 1.100 10000.000 0.000 -1.011
110 330.00 1200.00 172 506 1.100 10000.000 0.000 -1.011
111 333.00 1200.00 144 497 1.100 10000.000 0.000 -1.011
112 336.00 1200.00 161 535 1.100 10000.000 0.000 -1.011
113 339.00 1200.00 147 539 1.100 10000.000 0.000 -1.011
114 342.00 1200.00 141 595 1.100 10000.000 0.000 -1.011
115 345.00 1200.00 149 619 1.100 10000.000 0.000 -1.011
116 348.00 1200.00 131 580 1.100 10000.000 0.000 -1.011
117 351.00 1200.00 133 509 1.100 10000.000 0.000 -1.011
118 354.00 1200.00 121 537 1.100 10000.000 0.000 -1.011
119 357.00 1200.00 102 548 1.100 10000.000 0.000 -1.011
120 360.00 1200.00 123 542 1.100 10000.000 0.000 -1.011
121 363.00 1200.00 100 526 1.100 10000.000 0.000 -1.011
122 366.00 1200.00 123 474 1.100 10000.000 0.000 -1.011
123 369.00 1200.00 105 403 1.100 10000.000 0.000 -1.011
124 372.00 1200.00 94 431 1.100 10000.000 0.000 -1.011
125 375.00 1200.00 125 426 1.100 10000.000 0.000 -1.011
126 378.00 1200.00 117 391 1.100 10000.000 0.000 -1.011
127 381.00 1200.00 116 386 1.100 10000.000 0.000 -1.011
128 384.00 1200.00 99 324 1.100 10000.000 0.000 -1.011
129 387.00 1200.00 133 343 1.100 10000.000 0.000 -1.011
130 390.00 1200.00 141 294 1.100 10000.000 0.000 -1.011
131 393.00 1200.00 132 357 1.100 10000.000 0.000 -1.011
132 396.00 1200.00 150 270 1.100 10000.000 0.000 -1.011
133 399.00 1200.00 140 346 1.100 10000.000 0.000 -1.011
134 402.00 1200.00 161 315 1.100 10000.000 0.000 -1.011
135 405.00 1200.00 179 332 1.100 10000.000 0.000 -1.011
136 408.00 1200.00 166 352 1.100 10000.000 0.000 -1.011
137 411.00 1200.00 182 333 1.100 10000.000 0.000 -1.011
138 414.00 1200.00 178 387 1.100 10000.000 0.000 -1.011
139 417.00 1200.00 172 427 1.100 10000.000 0.000 -1.011
140 420.00 1200.00 189 440 1.100 10000.000 0.000 -1.011
141 423.00 1200.00 179 450 1.100 10000.000 0.000 -1.011
142 426.00 1200.00 202 496 1.100 10000.000 0.000 -1.011
143 429.00 1200.00 160 476 1.100 10000.000 0.000 -1.011
144 432.00 1200.00 157 551 1.100 10000.000 0.000 -1.011
