# BinNR microsec tot-time (s)  O-Beam AUX Ampl(V) f(Hz) phase(deg) chi(pos)
0 0.00 1200.00 82 112 1.100 10000.000 0.000 0.000
1 3.00 1200.00 176 225 1.100 10000.000 0.000 0.000
2 6.00 1200.00 174 175 1.100 10000.000 0.000 0.000
3 9.00 1200.00 204 213 1.100 10000.000 0.000 0.000
4 12.00 1200.00 200 204 1.100 10000.000 0.000 0.000
5 15.00 1200.00 195 229 1.100 10000.000 0.000 0.000
6 18.00 1200.00 214 261 1.100 10000.000 0.000 0.000
7 21.00 1200.00 240 288 1.100 10000.000 0.000 0.000
8 24.00 1200.00 235 307 1.100 10000.000 0.000 0.000
9 27.00 1200.00 222 297 1.100 10000.000 0.000 0.000
10 30.00 1200.00 252 298 1.100 10000.000 0.000 0.000
11 33.00 1200.00 231 327 1.100 10000.000 0.000 0.000
12 36.00 1200.00 231 333 1.100 10000.000 0.000 0.000
13 39.00 1200.00 230 299 1.100 10000.000 0.000 0.000
14 42.00 1200.00 206 298 1.100 10000.000 0.000 0.000
15 45.00 1200.00 201 281 1.100 10000.000 0.000 0.000
16 48.00 1200.00 194 259 1.100 10000.000 0.000 0.000
17 51.00 1200.00 202 244 1.100 10000.000 0.000 0.000
18 54.00 1200.00 188 220 1.100 10000.000 0.000 0.000
19 57.00 1200.00 160 221 1.100 10000.000 0.000 0.000
20 60.00 1200.00 180 221 1.100 10000.000 0.000 0.000
21 63.00 1200.00 165 241 1.100 10000.000 0.000 0.000
22 66.00 1200.00 154 253 1.100 10000.000 0.000 0.000
23 69.00 1200.00 183 278 1.100 10000.000 0.000 0.000
24 72.00 1200.00 142 265 1.100 10000.000 0.000 0.000
25 75.00 1200.00 147 331 1.100 10000.000 0.000 0.000
26 78.00 1200.00 139 326 1.100 10000.000 0.000 0.000
27 81.00 1200.00 137 357 1.100 10000.000 0.000 0.000
28 84.00 1200.00 133 413 1.100 10000.000 0.000 0.000
29 87.00 1200.00 149 422 1.100 10000.000 0.000 0.000
30 90.00 1200.00 152 459 1.100 10000.000 0.000 0.000
31 93.00 1200.00 157 447 1.100 10000.000 0.000 0.000
32 96.00 1200.00 146 489 1.100 10000.000 0.000 0.000
33 99.00 1200.00 179 440 1.100 10000.000 0.000 0.000
34 102.00 1200.00 171 425 1.100 10000.000 0.000 0.000
35 105.00 1200.00 179 416 1.100 10000.000 0.000 0.000
36 108.00 1200.00 168 445 1.100 10000.000 0.000 0.000
37 111.00 1200.00 187 363 1.100 10000.000 0.000 0.000
38 114.00 1200.00 201 379 1.100 10000.000 0.000 0.000
39 117.00 1200.00 242 346 1.100 10000.000 0.000 0.000
40 120.00 1200.00 220 337 1.100 10000.000 0.000 0.000
41 123.00 1200.00 216 312 1.100 10000.000 0.000 0.000
42 126.00 1200.00 203 229 1.100 10000.000 0.000 0.000
43 129.00 1200.00 224 246 1.100 10000.000 0.000 0.000
44 132.00 1200.00 213 197 1.100 10000.000 0.000 0.000
45 135.00 1200.00 188 199 1.100 10000.000 0.000 0.000
46 138.00 1200.00 223 202 1.100 10000.000 0.000 0.000
47 141.00 1200.00 212 194 1.100 10000.000 0.000 0.000
48 144.00 1200.00 221 185 1.100 10000.000 0.000 0.000
49 147.00 1200.00 201 181 1.100 10000.000 0.000 0.000
50 150.00 1200.00 220 182 1.100 10000.000 0.000 0.000
51 153.00 1200.00 189 186 1.100 10000.000 0.000 0.000
52 156.00 1200.00 212 209 1.100 10000.000 0.000 0.000
53 159.00 1200.00 212 218 1.100 10000.000 0.000 0.000
54 162.00 1200.00 212 259 1.100 10000.000 0.000 0.000
55 165.00 1200.00 194 258 1.100 10000.000 0.000 0.000
56 168.00 1200.00 174 265 1.100 10000.000 0.000 0.000
57 171.00 1200.00 155 321 1.100 10000.000 0.000 0.000
58 174.00 1200.00 162 377 1.100 10000.000 0.000 0.000
59 177.00 1200.00 145 370 1.100 10000.000 0.000 0.000
60 180.00 1200.00 138 359 1.100 10000.000 0.000 0.000
61 183.00 1200.00 126 400 1.100 10000.000 0.000 0.000
62 186.00 1200.00 173 457 1.100 10000.000 0.000 0.000
63 189.00 1200.00 154 466 1.100 10000.000 0.000 0.000
64 192.00 1200.00 167 425 1.100 10000.000 0.000 0.000
65 195.00 1200.00 166 469 1.100 10000.000 0.000 0.000
66 198.00 1200.00 158 500 1.100 10000.000 0.000 0.000
67 201.00 1200.00 151 449 1.100 10000.000 0.000 0.000
68 204.00 1200.00 177 470 1.100 10000.000 0.000 0.000
69 207.00 1200.00 196 420 1.100 10000.000 0.000 0.000
70 210.00 1200.00 185 408 1.100 10000.000 0.000 0.000
71 213.00 1200.00 205 397 1.100 10000.000 0.000 0.000
72 216.00 1200.00 199 382 1.100 10000.000 0.000 0.000
73 219.00 1200.00 206 318 1.100 10000.000 0.000 0.000
74 222.00 1200.00 199 291 1.100 10000.000 0.000 0.000
75 225.00 1200.00 219 243 1.100 10000.000 0.000 0.000
76 228.00 1200.00 219 241 1.100 10000.000 0.000 0.000
77 231.00 1200.00 213 232 1.100 10000.000 0.000 0.000
78 234.00 1200.00 209 226 1.100 10000.000 0.000 0.000
79 237.00 1200.00 220 200 1.100 10000.000 0.000 0.000
80 240.00 1200.00 233 191 1.100 10000.000 0.000 0.000
81 243.00 1200.00 227 185 1.100 10000.000 0.000 0.000
82 246.00 1200.00 219 189 1.100 10000.000 0.000 0.000
83 249.00 1200.00 207 181 1.100 10000.000 0.000 0.000
84 252.00 1200.00 214 196 1.100 10000.000 0.000 0.000
85 255.00 1200.00 210 204 1.100 10000.000 0.000 0.000
86 258.00 1200.00 206 237 1.100 10000.000 0.000 0.000
87 261.00 1200.00 162 248 1.100 10000.000 0.000 0.000
88 264.00 1200.00 179 251 1.100 10000.000 0.000 0.000
89 267.00 1200.00 152 249 1.100 10000.000 0.000 0.000
90 270.00 1200.00 161 291 1.100 10000.000 0.000 0.000
91 273.00 1200.00 148 318 1.100 10000.000 0.000 0.000
92 276.00 1200.00 144 382 1.100 10000.000 0.000 0.000
93 279.00 1200.00 170 380 1.100 10000.000 0.000 0.000
94 282.00 1200.00 165 412 1.100 10000.000 0.000 0.000
95 285.00 1200.00 160 429 1.100 10000.000 0.000 0.000
96 288.00 1200.00 173 440 1.100 10000.000 0.000 0.000
97 291.00 1200.00 166 449 1.100 10000.000 0.000 0.000
98 294.00 1200.00 180 418 1.100 10000.000 0.000 0.000
99 297.00 1200.00 167 465 1.100 10000.000 0.000 0.000
100 300.00 1200.00 193 463 1.100 10000.000 0.000 0.000
101 303.00 1200.00 181 446 1.100 10000.000 0.000 0.000
102 306.00 1200.00 193 410 1.100 10000.000 0.000 0.000
103 309.00 1200.00 178 423 1.100 10000.000 0.000 0.000
104 312.00 1200.00 183 396 1.100 10000.000 0.000 0.000
105 315.00 1200.00 151 406 1.100 10000.000 0.000 0.000
106 318.00 1200.00 180 346 1.100 10000.000 0.000 0.000
107 321.00 1200.00 157 294 1.100 10000.000 0.000 0.000
108 324.00 1200.00 190 283 1.100 10000.000 0.000 0.000
109 327.00 1200.00 172 235 1.100 10000.000 0.000 0.000
110 330.00 1200.00 182 243 1.100 10000.000 0.000 0.000
111 333.00 1200.00 167 228 1.100 10000.000 0.000 0.000
112 336.00 1200.00 170 230 1.100 10000.000 0.000 0.000
113 339.00 1200.00 164 189 1.100 10000.000 0.000 0.000
114 342.00 1200.00 180 204 1.100 10000.000 0.000 0.000
115 345.00 1200.00 196 176 1.100 10000.000 0.000 0.000
116 348.00 1200.00 188 198 1.100 10000.000 0.000 0.000
117 351.00 1200.00 171 176 1.100 10000.000 0.000 0.000
118 354.00 1200.00 225 171 1.100 10000.000 0.000 0.000
119 357.00 1200.00 200 209 1.100 10000.000 0.000 0.000
120 360.00 1200.00 245 228 1.100 10000.000 0.000 0.000
121 363.00 1200.00 195 242 1.100 10000.000 0.000 0.000
122 366.00 1200.00 227 259 1.100 10000.000 0.000 0.000
123 369.00 1200.00 211 289 1.100 10000.000 0.000 0.000
124 372.00 1200.00 206 326 1.100 10000.000 0.000 0.000
125 375.00 1200.00 209 337 1.100 10000.000 0.000 0.000
126 378.00 1200.00 202 389 1.100 10000.000 0.000 0.000
127 381.00 1200.00 220 399 1.100 10000.000 0.000 0.000
128 384.00 1200.00 207 416 1.100 10000.000 0.000 0.000
129 387.00 1200.00 231 417 1.100 10000.000 0.000 0.000
130 390.00 1200.00 193 430 1.100 10000.000 0.000 0.000
131 393.00 1200.00 199 471 1.100 10000.000 0.000 0.000
132 396.00 1200.00 191 444 1.100 10000.000 0.000 0.000
133 399.00 1200.00 163 487 1.100 10000.000 0.000 0.000
134 402.00 1200.00 185 452 1.100 10000.000 0.000 0.000
135 405.00 1200.00 160 401 1.100 10000.000 0.000 0.000
136 408.00 1200.00 158 373 1.100 10000.000 0.000 0.000
137 411.00 1200.00 140 423 1.100 10000.000 0.000 0.000
138 414.00 1200.00 146 387 1.100 10000.000 0.000 0.000
139 417.00 1200.00 139 354 1.100 10000.000 0.000 0.000
140 420.00 1200.00 138 327 1.100 10000.000 0.000 0.000
141 423.00 1200.00 167 287 1.100 10000.000 0.000 0.000
142 426.00 1200.00 152 313 1.100 10000.000 0.000 0.000
143 429.00 1200.00 171 225 1.100 10000.000 0.000 0.000
144 432.00 1200.00 168 233 1.100 10000.000 0.000 0.000
