# BinNR microsec tot-time (s)  O-Beam H-beam AUX Ampl1(V) f1(Hz) phase1(deg) Ampl1(V) f1(Hz) phase1(deg) chi(pos)
0 0.00 1200.00 80 230 210 0.425 2000.000 0.000 0.425 3000.000 0.000 -0.802
1 16.67 1200.00 74 232 212 0.425 2000.000 0.000 0.425 3000.000 0.000 -0.802
2 33.33 1200.00 71 229 238 0.425 2000.000 0.000 0.425 3000.000 0.000 -0.802
3 50.00 1200.00 87 237 224 0.425 2000.000 0.000 0.425 3000.000 0.000 -0.802
4 66.67 1200.00 88 229 225 0.425 2000.000 0.000 0.425 3000.000 0.000 -0.802
5 83.33 1200.00 80 203 204 0.425 2000.000 0.000 0.425 3000.000 0.000 -0.802
6 100.00 1200.00 60 224 226 0.425 2000.000 0.000 0.425 3000.000 0.000 -0.802
7 116.67 1200.00 81 224 230 0.425 2000.000 0.000 0.425 3000.000 0.000 -0.802
8 133.33 1200.00 75 217 241 0.425 2000.000 0.000 0.425 3000.000 0.000 -0.802
9 150.00 1200.00 80 222 235 0.425 2000.000 0.000 0.425 3000.000 0.000 -0.802
10 166.67 1200.00 93 249 222 0.425 2000.000 0.000 0.425 3000.000 0.000 -0.802
11 183.33 1200.00 87 241 238 0.425 2000.000 0.000 0.425 3000.000 0.000 -0.802
12 200.00 1200.00 98 200 248 0.425 2000.000 0.000 0.425 3000.000 0.000 -0.802
13 216.67 1200.00 87 245 229 0.425 2000.000 0.000 0.425 3000.000 0.000 -0.802
14 233.33 1200.00 81 274 226 0.425 2000.000 0.000 0.425 3000.000 0.000 -0.802
15 250.00 1200.00 80 221 221 0.425 2000.000 0.000 0.425 3000.000 0.000 -0.802
16 266.67 1200.00 92 240 190 0.425 2000.000 0.000 0.425 3000.000 0.000 -0.802
17 283.33 1200.00 82 259 189 0.425 2000.000 0.000 0.425 3000.000 0.000 -0.802
18 300.00 1200.00 79 227 223 0.425 2000.000 0.000 0.425 3000.000 0.000 -0.802
19 316.67 1200.00 87 219 203 0.425 2000.000 0.000 0.425 3000.000 0.000 -0.802
20 333.33 1200.00 72 230 207 0.425 2000.000 0.000 0.425 3000.000 0.000 -0.802
21 350.00 1200.00 73 229 207 0.425 2000.000 0.000 0.425 3000.000 0.000 -0.802
22 366.67 1200.00 83 240 241 0.425 2000.000 0.000 0.425 3000.000 0.000 -0.802
23 383.33 1200.00 88 246 227 0.425 2000.000 0.000 0.425 3000.000 0.000 -0.802
24 400.00 1200.00 73 258 253 0.425 2000.000 0.000 0.425 3000.000 0.000 -0.802
25 416.67 1200.00 70 210 240 0.425 2000.000 0.000 0.425 3000.000 0.000 -0.802
26 433.33 1200.00 72 264 235 0.425 2000.000 0.000 0.425 3000.000 0.000 -0.802
27 450.00 1200.00 70 237 208 0.425 2000.000 0.000 0.425 3000.000 0.000 -0.802
28 466.67 1200.00 76 241 248 0.425 2000.000 0.000 0.425 3000.000 0.000 -0.802
29 483.33 1200.00 81 245 233 0.425 2000.000 0.000 0.425 3000.000 0.000 -0.802
30 500.00 1200.00 77 251 232 0.425 2000.000 0.000 0.425 3000.000 0.000 -0.802
31 516.67 1200.00 81 273 224 0.425 2000.000 0.000 0.425 3000.000 0.000 -0.802
32 533.33 1200.00 73 246 227 0.425 2000.000 0.000 0.425 3000.000 0.000 -0.802
33 550.00 1200.00 78 250 226 0.425 2000.000 0.000 0.425 3000.000 0.000 -0.802
34 566.67 1200.00 101 244 217 0.425 2000.000 0.000 0.425 3000.000 0.000 -0.802
35 583.33 1200.00 80 259 205 0.425 2000.000 0.000 0.425 3000.000 0.000 -0.802
36 600.00 1200.00 81 273 232 0.425 2000.000 0.000 0.425 3000.000 0.000 -0.802
37 616.67 1200.00 85 220 221 0.425 2000.000 0.000 0.425 3000.000 0.000 -0.802
38 633.33 1200.00 89 228 213 0.425 2000.000 0.000 0.425 3000.000 0.000 -0.802
39 650.00 1200.00 90 199 215 0.425 2000.000 0.000 0.425 3000.000 0.000 -0.802
40 666.67 1200.00 90 234 188 0.425 2000.000 0.000 0.425 3000.000 0.000 -0.802
41 683.33 1200.00 84 235 201 0.425 2000.000 0.000 0.425 3000.000 0.000 -0.802
42 700.00 1200.00 100 238 210 0.425 2000.000 0.000 0.425 3000.000 0.000 -0.802
43 716.67 1200.00 88 241 217 0.425 2000.000 0.000 0.425 3000.000 0.000 -0.802
44 733.33 1200.00 75 216 207 0.425 2000.000 0.000 0.425 3000.000 0.000 -0.802
45 750.00 1200.00 85 240 220 0.425 2000.000 0.000 0.425 3000.000 0.000 -0.802
46 766.67 1200.00 88 250 198 0.425 2000.000 0.000 0.425 3000.000 0.000 -0.802
47 783.33 1200.00 75 241 211 0.425 2000.000 0.000 0.425 3000.000 0.000 -0.802
48 800.00 1200.00 84 238 234 0.425 2000.000 0.000 0.425 3000.000 0.000 -0.802
49 816.67 1200.00 74 239 236 0.425 2000.000 0.000 0.425 3000.000 0.000 -0.802
50 833.34 1200.00 70 272 229 0.425 2000.000 0.000 0.425 3000.000 0.000 -0.802
51 850.00 1200.00 63 239 212 0.425 2000.000 0.000 0.425 3000.000 0.000 -0.802
52 866.67 1200.00 87 272 216 0.425 2000.000 0.000 0.425 3000.000 0.000 -0.802
53 883.34 1200.00 103 265 239 0.425 2000.000 0.000 0.425 3000.000 0.000 -0.802
54 900.00 1200.00 69 265 237 0.425 2000.000 0.000 0.425 3000.000 0.000 -0.802
55 916.67 1200.00 90 268 216 0.425 2000.000 0.000 0.425 3000.000 0.000 -0.802
56 933.34 1200.00 80 278 238 0.425 2000.000 0.000 0.425 3000.000 0.000 -0.802
57 950.00 1200.00 90 258 250 0.425 2000.000 0.000 0.425 3000.000 0.000 -0.802
58 966.67 1200.00 88 234 214 0.425 2000.000 0.000 0.425 3000.000 0.000 -0.802
59 983.34 1200.00 84 262 235 0.425 2000.000 0.000 0.425 3000.000 0.000 -0.802
60 1000.00 1200.00 93 257 246 0.425 2000.000 0.000 0.425 3000.000 0.000 -0.802
61 1016.67 1200.00 89 230 204 0.425 2000.000 0.000 0.425 3000.000 0.000 -0.802
62 1033.34 1200.00 71 233 212 0.425 2000.000 0.000 0.425 3000.000 0.000 -0.802
63 1050.00 1200.00 63 221 205 0.425 2000.000 0.000 0.425 3000.000 0.000 -0.802
64 1066.67 1200.00 87 234 227 0.425 2000.000 0.000 0.425 3000.000 0.000 -0.802
65 1083.34 1200.00 67 198 204 0.425 2000.000 0.000 0.425 3000.000 0.000 -0.802
66 1100.00 1200.00 73 212 193 0.425 2000.000 0.000 0.425 3000.000 0.000 -0.802
67 1116.67 1200.00 84 222 227 0.425 2000.000 0.000 0.425 3000.000 0.000 -0.802
68 1133.34 1200.00 81 208 193 0.425 2000.000 0.000 0.425 3000.000 0.000 -0.802
69 1150.00 1200.00 81 211 206 0.425 2000.000 0.000 0.425 3000.000 0.000 -0.802
70 1166.67 1200.00 85 227 219 0.425 2000.000 0.000 0.425 3000.000 0.000 -0.802
71 1183.34 1200.00 90 234 246 0.425 2000.000 0.000 0.425 3000.000 0.000 -0.802
72 1200.00 1200.00 75 241 228 0.425 2000.000 0.000 0.425 3000.000 0.000 -0.802
73 1216.67 1200.00 90 224 216 0.425 2000.000 0.000 0.425 3000.000 0.000 -0.802
74 1233.34 1200.00 88 231 217 0.425 2000.000 0.000 0.425 3000.000 0.000 -0.802
75 1250.00 1200.00 66 217 238 0.425 2000.000 0.000 0.425 3000.000 0.000 -0.802
76 1266.67 1200.00 95 237 219 0.425 2000.000 0.000 0.425 3000.000 0.000 -0.802
77 1283.34 1200.00 82 272 227 0.425 2000.000 0.000 0.425 3000.000 0.000 -0.802
78 1300.00 1200.00 87 265 202 0.425 2000.000 0.000 0.425 3000.000 0.000 -0.802
79 1316.67 1200.00 85 267 214 0.425 2000.000 0.000 0.425 3000.000 0.000 -0.802
80 1333.34 1200.00 78 241 218 0.425 2000.000 0.000 0.425 3000.000 0.000 -0.802
81 1350.00 1200.00 68 230 211 0.425 2000.000 0.000 0.425 3000.000 0.000 -0.802
82 1366.67 1200.00 77 232 209 0.425 2000.000 0.000 0.425 3000.000 0.000 -0.802
83 1383.34 1200.00 64 246 224 0.425 2000.000 0.000 0.425 3000.000 0.000 -0.802
84 1400.00 1200.00 76 263 230 0.425 2000.000 0.000 0.425 3000.000 0.000 -0.802
85 1416.67 1200.00 66 213 230 0.425 2000.000 0.000 0.425 3000.000 0.000 -0.802
86 1433.34 1200.00 90 213 226 0.425 2000.000 0.000 0.425 3000.000 0.000 -0.802
87 1450.00 1200.00 69 238 238 0.425 2000.000 0.000 0.425 3000.000 0.000 -0.802
88 1466.67 1200.00 88 245 245 0.425 2000.000 0.000 0.425 3000.000 0.000 -0.802
89 1483.34 1200.00 79 260 225 0.425 2000.000 0.000 0.425 3000.000 0.000 -0.802
90 1500.00 1200.00 69 261 222 0.425 2000.000 0.000 0.425 3000.000 0.000 -0.802
91 1516.67 1200.00 78 250 225 0.425 2000.000 0.000 0.425 3000.000 0.000 -0.802
92 1533.34 1200.00 91 228 222 0.425 2000.000 0.000 0.425 3000.000 0.000 -0.802
93 1550.00 1200.00 71 235 200 0.425 2000.000 0.000 0.425 3000.000 0.000 -0.802
94 1566.67 1200.00 78 262 227 0.425 2000.000 0.000 0.425 3000.000 0.000 -0.802
95 1583.34 1200.00 85 262 198 0.425 2000.000 0.000 0.425 3000.000 0.000 -0.802
96 1600.00 1200.00 85 231 221 0.425 2000.000 0.000 0.425 3000.000 0.000 -0.802
97 1616.67 1200.00 97 230 215 0.425 2000.000 0.000 0.425 3000.000 0.000 -0.802
98 1633.34 1200.00 77 246 220 0.425 2000.000 0.000 0.425 3000.000 0.000 -0.802
99 1650.00 1200.00 77 240 200 0.425 2000.000 0.000 0.425 3000.000 0.000 -0.802
100 1666.67 1200.00 92 227 194 0.425 2000.000 0.000 0.425 3000.000 0.000 -0.802
101 1683.34 1200.00 87 240 187 0.425 2000.000 0.000 0.425 3000.000 0.000 -0.802
102 1700.00 1200.00 73 243 178 0.425 2000.000 0.000 0.425 3000.000 0.000 -0.802
103 1716.67 1200.00 78 252 182 0.425 2000.000 0.000 0.425 3000.000 0.000 -0.802
104 1733.34 1200.00 81 213 197 0.425 2000.000 0.000 0.425 3000.000 0.000 -0.802
105 1750.00 1200.00 77 255 211 0.425 2000.000 0.000 0.425 3000.000 0.000 -0.802
106 1766.67 1200.00 83 222 192 0.425 2000.000 0.000 0.425 3000.000 0.000 -0.802
107 1783.34 1200.00 83 199 206 0.425 2000.000 0.000 0.425 3000.000 0.000 -0.802
108 1800.00 1200.00 69 242 215 0.425 2000.000 0.000 0.425 3000.000 0.000 -0.802
109 1816.67 1200.00 91 252 235 0.425 2000.000 0.000 0.425 3000.000 0.000 -0.802
110 1833.34 1200.00 71 250 214 0.425 2000.000 0.000 0.425 3000.000 0.000 -0.802
111 1850.00 1200.00 65 247 198 0.425 2000.000 0.000 0.425 3000.000 0.000 -0.802
112 1866.67 1200.00 70 243 248 0.425 2000.000 0.000 0.425 3000.000 0.000 -0.802
113 1883.34 1200.00 79 297 229 0.425 2000.000 0.000 0.425 3000.000 0.000 -0.802
114 1900.00 1200.00 100 254 211 0.425 2000.000 0.000 0.425 3000.000 0.000 -0.802
115 1916.67 1200.00 85 287 242 0.425 2000.000 0.000 0.425 3000.000 0.000 -0.802
116 1933.34 1200.00 77 282 269 0.425 2000.000 0.000 0.425 3000.000 0.000 -0.802
117 1950.00 1200.00 73 285 235 0.425 2000.000 0.000 0.425 3000.000 0.000 -0.802
118 1966.67 1200.00 79 261 198 0.425 2000.000 0.000 0.425 3000.000 0.000 -0.802
119 1983.34 1200.00 67 219 202 0.425 2000.000 0.000 0.425 3000.000 0.000 -0.802
