# BinNR microsec tot-time (s)  O-Beam H-beam AUX Ampl1(V) f1(Hz) phase1(deg) Ampl1(V) f1(Hz) phase1(deg) chi(pos)
0 0.00 1200.00 24 546 27 0.425 2000.000 0.000 0.425 3000.000 0.000 0.352
1 16.67 1200.00 10 509 29 0.425 2000.000 0.000 0.425 3000.000 0.000 0.352
2 33.33 1200.00 16 552 34 0.425 2000.000 0.000 0.425 3000.000 0.000 0.352
3 50.00 1200.00 10 542 41 0.425 2000.000 0.000 0.425 3000.000 0.000 0.352
4 66.67 1200.00 20 524 28 0.425 2000.000 0.000 0.425 3000.000 0.000 0.352
5 83.33 1200.00 18 536 40 0.425 2000.000 0.000 0.425 3000.000 0.000 0.352
6 100.00 1200.00 20 503 28 0.425 2000.000 0.000 0.425 3000.000 0.000 0.352
7 116.67 1200.00 22 568 37 0.425 2000.000 0.000 0.425 3000.000 0.000 0.352
8 133.33 1200.00 13 549 24 0.425 2000.000 0.000 0.425 3000.000 0.000 0.352
9 150.00 1200.00 16 535 35 0.425 2000.000 0.000 0.425 3000.000 0.000 0.352
10 166.67 1200.00 14 501 32 0.425 2000.000 0.000 0.425 3000.000 0.000 0.352
11 183.33 1200.00 23 486 43 0.425 2000.000 0.000 0.425 3000.000 0.000 0.352
12 200.00 1200.00 22 546 42 0.425 2000.000 0.000 0.425 3000.000 0.000 0.352
13 216.67 1200.00 21 540 32 0.425 2000.000 0.000 0.425 3000.000 0.000 0.352
14 233.33 1200.00 15 545 34 0.425 2000.000 0.000 0.425 3000.000 0.000 0.352
15 250.00 1200.00 22 539 22 0.425 2000.000 0.000 0.425 3000.000 0.000 0.352
16 266.67 1200.00 17 520 33 0.425 2000.000 0.000 0.425 3000.000 0.000 0.352
17 283.33 1200.00 21 503 24 0.425 2000.000 0.000 0.425 3000.000 0.000 0.352
18 300.00 1200.00 21 540 39 0.425 2000.000 0.000 0.425 3000.000 0.000 0.352
19 316.67 1200.00 18 509 37 0.425 2000.000 0.000 0.425 3000.000 0.000 0.352
20 333.33 1200.00 17 513 41 0.425 2000.000 0.000 0.425 3000.000 0.000 0.352
21 350.00 1200.00 16 558 37 0.425 2000.000 0.000 0.425 3000.000 0.000 0.352
22 366.67 1200.00 18 531 35 0.425 2000.000 0.000 0.425 3000.000 0.000 0.352
23 383.33 1200.00 25 522 28 0.425 2000.000 0.000 0.425 3000.000 0.000 0.352
24 400.00 1200.00 14 526 34 0.425 2000.000 0.000 0.425 3000.000 0.000 0.352
25 416.67 1200.00 16 503 27 0.425 2000.000 0.000 0.425 3000.000 0.000 0.352
26 433.33 1200.00 16 556 35 0.425 2000.000 0.000 0.425 3000.000 0.000 0.352
27 450.00 1200.00 17 530 30 0.425 2000.000 0.000 0.425 3000.000 0.000 0.352
28 466.67 1200.00 16 528 32 0.425 2000.000 0.000 0.425 3000.000 0.000 0.352
29 483.33 1200.00 9 478 36 0.425 2000.000 0.000 0.425 3000.000 0.000 0.352
30 500.00 1200.00 24 538 40 0.425 2000.000 0.000 0.425 3000.000 0.000 0.352
31 516.67 1200.00 17 518 40 0.425 2000.000 0.000 0.425 3000.000 0.000 0.352
32 533.33 1200.00 17 518 47 0.425 2000.000 0.000 0.425 3000.000 0.000 0.352
33 550.00 1200.00 19 520 30 0.425 2000.000 0.000 0.425 3000.000 0.000 0.352
34 566.67 1200.00 30 535 30 0.425 2000.000 0.000 0.425 3000.000 0.000 0.352
35 583.33 1200.00 15 500 43 0.425 2000.000 0.000 0.425 3000.000 0.000 0.352
36 600.00 1200.00 20 559 32 0.425 2000.000 0.000 0.425 3000.000 0.000 0.352
37 616.67 1200.00 19 530 27 0.425 2000.000 0.000 0.425 3000.000 0.000 0.352
38 633.33 1200.00 19 545 34 0.425 2000.000 0.000 0.425 3000.000 0.000 0.352
39 650.00 1200.00 21 558 35 0.425 2000.000 0.000 0.425 3000.000 0.000 0.352
40 666.67 1200.00 23 530 35 0.425 2000.000 0.000 0.425 3000.000 0.000 0.352
41 683.33 1200.00 17 529 41 0.425 2000.000 0.000 0.425 3000.000 0.000 0.352
42 700.00 1200.00 22 502 42 0.425 2000.000 0.000 0.425 3000.000 0.000 0.352
43 716.67 1200.00 12 510 50 0.425 2000.000 0.000 0.425 3000.000 0.000 0.352
44 733.33 1200.00 16 499 35 0.425 2000.000 0.000 0.425 3000.000 0.000 0.352
45 750.00 1200.00 14 514 47 0.425 2000.000 0.000 0.425 3000.000 0.000 0.352
46 766.67 1200.00 20 529 35 0.425 2000.000 0.000 0.425 3000.000 0.000 0.352
47 783.33 1200.00 11 530 40 0.425 2000.000 0.000 0.425 3000.000 0.000 0.352
48 800.00 1200.00 32 550 32 0.425 2000.000 0.000 0.425 3000.000 0.000 0.352
49 816.67 1200.00 22 527 29 0.425 2000.000 0.000 0.425 3000.000 0.000 0.352
50 833.34 1200.00 21 497 28 0.425 2000.000 0.000 0.425 3000.000 0.000 0.352
51 850.00 1200.00 16 566 34 0.425 2000.000 0.000 0.425 3000.000 0.000 0.352
52 866.67 1200.00 17 505 28 0.425 2000.000 0.000 0.425 3000.000 0.000 0.352
53 883.34 1200.00 18 523 37 0.425 2000.000 0.000 0.425 3000.000 0.000 0.352
54 900.00 1200.00 24 523 35 0.425 2000.000 0.000 0.425 3000.000 0.000 0.352
55 916.67 1200.00 25 484 31 0.425 2000.000 0.000 0.425 3000.000 0.000 0.352
56 933.34 1200.00 18 582 34 0.425 2000.000 0.000 0.425 3000.000 0.000 0.352
57 950.00 1200.00 14 502 31 0.425 2000.000 0.000 0.425 3000.000 0.000 0.352
58 966.67 1200.00 24 512 30 0.425 2000.000 0.000 0.425 3000.000 0.000 0.352
59 983.34 1200.00 24 485 31 0.425 2000.000 0.000 0.425 3000.000 0.000 0.352
60 1000.00 1200.00 18 518 27 0.425 2000.000 0.000 0.425 3000.000 0.000 0.352
61 1016.67 1200.00 16 552 38 0.425 2000.000 0.000 0.425 3000.000 0.000 0.352
62 1033.34 1200.00 17 552 26 0.425 2000.000 0.000 0.425 3000.000 0.000 0.352
63 1050.00 1200.00 17 545 29 0.425 2000.000 0.000 0.425 3000.000 0.000 0.352
64 1066.67 1200.00 19 500 39 0.425 2000.000 0.000 0.425 3000.000 0.000 0.352
65 1083.34 1200.00 24 526 31 0.425 2000.000 0.000 0.425 3000.000 0.000 0.352
66 1100.00 1200.00 18 531 33 0.425 2000.000 0.000 0.425 3000.000 0.000 0.352
67 1116.67 1200.00 21 513 30 0.425 2000.000 0.000 0.425 3000.000 0.000 0.352
68 1133.34 1200.00 24 504 29 0.425 2000.000 0.000 0.425 3000.000 0.000 0.352
69 1150.00 1200.00 22 561 30 0.425 2000.000 0.000 0.425 3000.000 0.000 0.352
70 1166.67 1200.00 25 535 27 0.425 2000.000 0.000 0.425 3000.000 0.000 0.352
71 1183.34 1200.00 19 532 24 0.425 2000.000 0.000 0.425 3000.000 0.000 0.352
72 1200.00 1200.00 14 525 45 0.425 2000.000 0.000 0.425 3000.000 0.000 0.352
73 1216.67 1200.00 23 498 49 0.425 2000.000 0.000 0.425 3000.000 0.000 0.352
74 1233.34 1200.00 18 545 26 0.425 2000.000 0.000 0.425 3000.000 0.000 0.352
75 1250.00 1200.00 20 504 22 0.425 2000.000 0.000 0.425 3000.000 0.000 0.352
76 1266.67 1200.00 23 522 34 0.425 2000.000 0.000 0.425 3000.000 0.000 0.352
77 1283.34 1200.00 18 540 41 0.425 2000.000 0.000 0.425 3000.000 0.000 0.352
78 1300.00 1200.00 20 521 32 0.425 2000.000 0.000 0.425 3000.000 0.000 0.352
79 1316.67 1200.00 17 512 29 0.425 2000.000 0.000 0.425 3000.000 0.000 0.352
80 1333.34 1200.00 23 527 31 0.425 2000.000 0.000 0.425 3000.000 0.000 0.352
81 1350.00 1200.00 10 501 30 0.425 2000.000 0.000 0.425 3000.000 0.000 0.352
82 1366.67 1200.00 15 549 32 0.425 2000.000 0.000 0.425 3000.000 0.000 0.352
83 1383.34 1200.00 19 525 31 0.425 2000.000 0.000 0.425 3000.000 0.000 0.352
84 1400.00 1200.00 20 543 33 0.425 2000.000 0.000 0.425 3000.000 0.000 0.352
85 1416.67 1200.00 14 499 36 0.425 2000.000 0.000 0.425 3000.000 0.000 0.352
86 1433.34 1200.00 28 530 43 0.425 2000.000 0.000 0.425 3000.000 0.000 0.352
87 1450.00 1200.00 11 553 36 0.425 2000.000 0.000 0.425 3000.000 0.000 0.352
88 1466.67 1200.00 23 536 29 0.425 2000.000 0.000 0.425 3000.000 0.000 0.352
89 1483.34 1200.00 9 539 29 0.425 2000.000 0.000 0.425 3000.000 0.000 0.352
90 1500.00 1200.00 21 528 51 0.425 2000.000 0.000 0.425 3000.000 0.000 0.352
91 1516.67 1200.00 19 551 35 0.425 2000.000 0.000 0.425 3000.000 0.000 0.352
92 1533.34 1200.00 18 504 37 0.425 2000.000 0.000 0.425 3000.000 0.000 0.352
93 1550.00 1200.00 18 550 28 0.425 2000.000 0.000 0.425 3000.000 0.000 0.352
94 1566.67 1200.00 14 544 30 0.425 2000.000 0.000 0.425 3000.000 0.000 0.352
95 1583.34 1200.00 19 514 37 0.425 2000.000 0.000 0.425 3000.000 0.000 0.352
96 1600.00 1200.00 11 525 32 0.425 2000.000 0.000 0.425 3000.000 0.000 0.352
97 1616.67 1200.00 15 594 40 0.425 2000.000 0.000 0.425 3000.000 0.000 0.352
98 1633.34 1200.00 14 561 29 0.425 2000.000 0.000 0.425 3000.000 0.000 0.352
99 1650.00 1200.00 17 519 26 0.425 2000.000 0.000 0.425 3000.000 0.000 0.352
100 1666.67 1200.00 24 533 39 0.425 2000.000 0.000 0.425 3000.000 0.000 0.352
101 1683.34 1200.00 11 546 29 0.425 2000.000 0.000 0.425 3000.000 0.000 0.352
102 1700.00 1200.00 19 520 31 0.425 2000.000 0.000 0.425 3000.000 0.000 0.352
103 1716.67 1200.00 17 480 40 0.425 2000.000 0.000 0.425 3000.000 0.000 0.352
104 1733.34 1200.00 15 553 35 0.425 2000.000 0.000 0.425 3000.000 0.000 0.352
105 1750.00 1200.00 17 501 25 0.425 2000.000 0.000 0.425 3000.000 0.000 0.352
106 1766.67 1200.00 25 544 35 0.425 2000.000 0.000 0.425 3000.000 0.000 0.352
107 1783.34 1200.00 26 539 26 0.425 2000.000 0.000 0.425 3000.000 0.000 0.352
108 1800.00 1200.00 27 551 30 0.425 2000.000 0.000 0.425 3000.000 0.000 0.352
109 1816.67 1200.00 12 522 39 0.425 2000.000 0.000 0.425 3000.000 0.000 0.352
110 1833.34 1200.00 17 515 34 0.425 2000.000 0.000 0.425 3000.000 0.000 0.352
111 1850.00 1200.00 10 507 35 0.425 2000.000 0.000 0.425 3000.000 0.000 0.352
112 1866.67 1200.00 11 480 39 0.425 2000.000 0.000 0.425 3000.000 0.000 0.352
113 1883.34 1200.00 16 595 38 0.425 2000.000 0.000 0.425 3000.000 0.000 0.352
114 1900.00 1200.00 23 518 34 0.425 2000.000 0.000 0.425 3000.000 0.000 0.352
115 1916.67 1200.00 15 508 46 0.425 2000.000 0.000 0.425 3000.000 0.000 0.352
116 1933.34 1200.00 15 540 40 0.425 2000.000 0.000 0.425 3000.000 0.000 0.352
117 1950.00 1200.00 23 526 37 0.425 2000.000 0.000 0.425 3000.000 0.000 0.352
118 1966.67 1200.00 14 520 47 0.425 2000.000 0.000 0.425 3000.000 0.000 0.352
119 1983.34 1200.00 18 492 30 0.425 2000.000 0.000 0.425 3000.000 0.000 0.352
