# BinNR microsec tot-time (s)  O-Beam H-beam AUX Ampl1(V) f1(Hz) phase1(deg) Ampl1(V) f1(Hz) phase1(deg) chi(pos)
0 0.00 1200.00 21 515 35 0.425 2000.000 0.000 0.425 3000.000 0.000 0.209
1 16.67 1200.00 30 507 36 0.425 2000.000 0.000 0.425 3000.000 0.000 0.209
2 33.33 1200.00 23 521 43 0.425 2000.000 0.000 0.425 3000.000 0.000 0.209
3 50.00 1200.00 22 518 35 0.425 2000.000 0.000 0.425 3000.000 0.000 0.209
4 66.67 1200.00 19 526 49 0.425 2000.000 0.000 0.425 3000.000 0.000 0.209
5 83.33 1200.00 12 566 47 0.425 2000.000 0.000 0.425 3000.000 0.000 0.209
6 100.00 1200.00 19 485 40 0.425 2000.000 0.000 0.425 3000.000 0.000 0.209
7 116.67 1200.00 20 493 46 0.425 2000.000 0.000 0.425 3000.000 0.000 0.209
8 133.33 1200.00 25 507 48 0.425 2000.000 0.000 0.425 3000.000 0.000 0.209
9 150.00 1200.00 16 524 36 0.425 2000.000 0.000 0.425 3000.000 0.000 0.209
10 166.67 1200.00 22 571 39 0.425 2000.000 0.000 0.425 3000.000 0.000 0.209
11 183.33 1200.00 29 518 39 0.425 2000.000 0.000 0.425 3000.000 0.000 0.209
12 200.00 1200.00 13 541 46 0.425 2000.000 0.000 0.425 3000.000 0.000 0.209
13 216.67 1200.00 15 521 39 0.425 2000.000 0.000 0.425 3000.000 0.000 0.209
14 233.33 1200.00 22 492 46 0.425 2000.000 0.000 0.425 3000.000 0.000 0.209
15 250.00 1200.00 10 538 33 0.425 2000.000 0.000 0.425 3000.000 0.000 0.209
16 266.67 1200.00 10 509 42 0.425 2000.000 0.000 0.425 3000.000 0.000 0.209
17 283.33 1200.00 11 517 43 0.425 2000.000 0.000 0.425 3000.000 0.000 0.209
18 300.00 1200.00 22 524 60 0.425 2000.000 0.000 0.425 3000.000 0.000 0.209
19 316.67 1200.00 17 489 49 0.425 2000.000 0.000 0.425 3000.000 0.000 0.209
20 333.33 1200.00 25 510 52 0.425 2000.000 0.000 0.425 3000.000 0.000 0.209
21 350.00 1200.00 35 579 49 0.425 2000.000 0.000 0.425 3000.000 0.000 0.209
22 366.67 1200.00 27 539 53 0.425 2000.000 0.000 0.425 3000.000 0.000 0.209
23 383.33 1200.00 23 463 48 0.425 2000.000 0.000 0.425 3000.000 0.000 0.209
24 400.00 1200.00 25 535 47 0.425 2000.000 0.000 0.425 3000.000 0.000 0.209
25 416.67 1200.00 32 514 32 0.425 2000.000 0.000 0.425 3000.000 0.000 0.209
26 433.33 1200.00 25 506 42 0.425 2000.000 0.000 0.425 3000.000 0.000 0.209
27 450.00 1200.00 28 544 32 0.425 2000.000 0.000 0.425 3000.000 0.000 0.209
28 466.67 1200.00 17 551 38 0.425 2000.000 0.000 0.425 3000.000 0.000 0.209
29 483.33 1200.00 24 538 44 0.425 2000.000 0.000 0.425 3000.000 0.000 0.209
30 500.00 1200.00 15 505 36 0.425 2000.000 0.000 0.425 3000.000 0.000 0.209
31 516.67 1200.00 20 502 39 0.425 2000.000 0.000 0.425 3000.000 0.000 0.209
32 533.33 1200.00 28 538 37 0.425 2000.000 0.000 0.425 3000.000 0.000 0.209
33 550.00 1200.00 12 494 33 0.425 2000.000 0.000 0.425 3000.000 0.000 0.209
34 566.67 1200.00 12 538 29 0.425 2000.000 0.000 0.425 3000.000 0.000 0.209
35 583.33 1200.00 17 477 35 0.425 2000.000 0.000 0.425 3000.000 0.000 0.209
36 600.00 1200.00 14 538 49 0.425 2000.000 0.000 0.425 3000.000 0.000 0.209
37 616.67 1200.00 10 551 56 0.425 2000.000 0.000 0.425 3000.000 0.000 0.209
38 633.33 1200.00 9 527 57 0.425 2000.000 0.000 0.425 3000.000 0.000 0.209
39 650.00 1200.00 18 497 55 0.425 2000.000 0.000 0.425 3000.000 0.000 0.209
40 666.67 1200.00 12 513 63 0.425 2000.000 0.000 0.425 3000.000 0.000 0.209
41 683.33 1200.00 16 541 50 0.425 2000.000 0.000 0.425 3000.000 0.000 0.209
42 700.00 1200.00 19 526 62 0.425 2000.000 0.000 0.425 3000.000 0.000 0.209
43 716.67 1200.00 16 542 56 0.425 2000.000 0.000 0.425 3000.000 0.000 0.209
44 733.33 1200.00 17 511 54 0.425 2000.000 0.000 0.425 3000.000 0.000 0.209
45 750.00 1200.00 25 541 51 0.425 2000.000 0.000 0.425 3000.000 0.000 0.209
46 766.67 1200.00 26 560 45 0.425 2000.000 0.000 0.425 3000.000 0.000 0.209
47 783.33 1200.00 26 528 47 0.425 2000.000 0.000 0.425 3000.000 0.000 0.209
48 800.00 1200.00 18 521 36 0.425 2000.000 0.000 0.425 3000.000 0.000 0.209
49 816.67 1200.00 30 545 40 0.425 2000.000 0.000 0.425 3000.000 0.000 0.209
50 833.34 1200.00 19 502 39 0.425 2000.000 0.000 0.425 3000.000 0.000 0.209
51 850.00 1200.00 21 507 29 0.425 2000.000 0.000 0.425 3000.000 0.000 0.209
52 866.67 1200.00 19 512 28 0.425 2000.000 0.000 0.425 3000.000 0.000 0.209
53 883.34 1200.00 17 486 29 0.425 2000.000 0.000 0.425 3000.000 0.000 0.209
54 900.00 1200.00 25 449 43 0.425 2000.000 0.000 0.425 3000.000 0.000 0.209
55 916.67 1200.00 24 510 43 0.425 2000.000 0.000 0.425 3000.000 0.000 0.209
56 933.34 1200.00 20 470 44 0.425 2000.000 0.000 0.425 3000.000 0.000 0.209
57 950.00 1200.00 23 524 39 0.425 2000.000 0.000 0.425 3000.000 0.000 0.209
58 966.67 1200.00 14 521 42 0.425 2000.000 0.000 0.425 3000.000 0.000 0.209
59 983.34 1200.00 19 508 37 0.425 2000.000 0.000 0.425 3000.000 0.000 0.209
60 1000.00 1200.00 29 508 35 0.425 2000.000 0.000 0.425 3000.000 0.000 0.209
61 1016.67 1200.00 27 502 50 0.425 2000.000 0.000 0.425 3000.000 0.000 0.209
62 1033.34 1200.00 19 524 49 0.425 2000.000 0.000 0.425 3000.000 0.000 0.209
63 1050.00 1200.00 19 475 46 0.425 2000.000 0.000 0.425 3000.000 0.000 0.209
64 1066.67 1200.00 18 519 57 0.425 2000.000 0.000 0.425 3000.000 0.000 0.209
65 1083.34 1200.00 23 497 55 0.425 2000.000 0.000 0.425 3000.000 0.000 0.209
66 1100.00 1200.00 21 540 43 0.425 2000.000 0.000 0.425 3000.000 0.000 0.209
67 1116.67 1200.00 25 548 43 0.425 2000.000 0.000 0.425 3000.000 0.000 0.209
68 1133.34 1200.00 20 551 44 0.425 2000.000 0.000 0.425 3000.000 0.000 0.209
69 1150.00 1200.00 21 487 45 0.425 2000.000 0.000 0.425 3000.000 0.000 0.209
70 1166.67 1200.00 22 511 32 0.425 2000.000 0.000 0.425 3000.000 0.000 0.209
71 1183.34 1200.00 21 539 46 0.425 2000.000 0.000 0.425 3000.000 0.000 0.209
72 1200.00 1200.00 17 534 41 0.425 2000.000 0.000 0.425 3000.000 0.000 0.209
73 1216.67 1200.00 16 508 45 0.425 2000.000 0.000 0.425 3000.000 0.000 0.209
74 1233.34 1200.00 21 488 52 0.425 2000.000 0.000 0.425 3000.000 0.000 0.209
75 1250.00 1200.00 18 498 50 0.425 2000.000 0.000 0.425 3000.000 0.000 0.209
76 1266.67 1200.00 8 498 52 0.425 2000.000 0.000 0.425 3000.000 0.000 0.209
77 1283.34 1200.00 18 527 46 0.425 2000.000 0.000 0.425 3000.000 0.000 0.209
78 1300.00 1200.00 10 525 47 0.425 2000.000 0.000 0.425 3000.000 0.000 0.209
79 1316.67 1200.00 22 510 65 0.425 2000.000 0.000 0.425 3000.000 0.000 0.209
80 1333.34 1200.00 32 481 56 0.425 2000.000 0.000 0.425 3000.000 0.000 0.209
81 1350.00 1200.00 32 523 55 0.425 2000.000 0.000 0.425 3000.000 0.000 0.209
82 1366.67 1200.00 21 495 47 0.425 2000.000 0.000 0.425 3000.000 0.000 0.209
83 1383.34 1200.00 31 560 49 0.425 2000.000 0.000 0.425 3000.000 0.000 0.209
84 1400.00 1200.00 29 467 40 0.425 2000.000 0.000 0.425 3000.000 0.000 0.209
85 1416.67 1200.00 27 488 36 0.425 2000.000 0.000 0.425 3000.000 0.000 0.209
86 1433.34 1200.00 21 528 48 0.425 2000.000 0.000 0.425 3000.000 0.000 0.209
87 1450.00 1200.00 29 498 39 0.425 2000.000 0.000 0.425 3000.000 0.000 0.209
88 1466.67 1200.00 29 519 30 0.425 2000.000 0.000 0.425 3000.000 0.000 0.209
89 1483.34 1200.00 24 499 39 0.425 2000.000 0.000 0.425 3000.000 0.000 0.209
90 1500.00 1200.00 19 491 29 0.425 2000.000 0.000 0.425 3000.000 0.000 0.209
91 1516.67 1200.00 26 540 22 0.425 2000.000 0.000 0.425 3000.000 0.000 0.209
92 1533.34 1200.00 11 500 46 0.425 2000.000 0.000 0.425 3000.000 0.000 0.209
93 1550.00 1200.00 9 493 26 0.425 2000.000 0.000 0.425 3000.000 0.000 0.209
94 1566.67 1200.00 24 480 27 0.425 2000.000 0.000 0.425 3000.000 0.000 0.209
95 1583.34 1200.00 12 472 51 0.425 2000.000 0.000 0.425 3000.000 0.000 0.209
96 1600.00 1200.00 14 489 42 0.425 2000.000 0.000 0.425 3000.000 0.000 0.209
97 1616.67 1200.00 20 571 52 0.425 2000.000 0.000 0.425 3000.000 0.000 0.209
98 1633.34 1200.00 25 525 60 0.425 2000.000 0.000 0.425 3000.000 0.000 0.209
99 1650.00 1200.00 24 542 50 0.425 2000.000 0.000 0.425 3000.000 0.000 0.209
100 1666.67 1200.00 13 560 59 0.425 2000.000 0.000 0.425 3000.000 0.000 0.209
101 1683.34 1200.00 24 548 62 0.425 2000.000 0.000 0.425 3000.000 0.000 0.209
102 1700.00 1200.00 21 524 54 0.425 2000.000 0.000 0.425 3000.000 0.000 0.209
103 1716.67 1200.00 16 578 65 0.425 2000.000 0.000 0.425 3000.000 0.000 0.209
104 1733.34 1200.00 18 530 52 0.425 2000.000 0.000 0.425 3000.000 0.000 0.209
105 1750.00 1200.00 23 571 69 0.425 2000.000 0.000 0.425 3000.000 0.000 0.209
106 1766.67 1200.00 22 512 63 0.425 2000.000 0.000 0.425 3000.000 0.000 0.209
107 1783.34 1200.00 12 480 51 0.425 2000.000 0.000 0.425 3000.000 0.000 0.209
108 1800.00 1200.00 15 504 36 0.425 2000.000 0.000 0.425 3000.000 0.000 0.209
109 1816.67 1200.00 31 522 38 0.425 2000.000 0.000 0.425 3000.000 0.000 0.209
110 1833.34 1200.00 22 509 34 0.425 2000.000 0.000 0.425 3000.000 0.000 0.209
111 1850.00 1200.00 23 530 30 0.425 2000.000 0.000 0.425 3000.000 0.000 0.209
112 1866.67 1200.00 23 495 41 0.425 2000.000 0.000 0.425 3000.000 0.000 0.209
113 1883.34 1200.00 18 502 20 0.425 2000.000 0.000 0.425 3000.000 0.000 0.209
114 1900.00 1200.00 21 497 33 0.425 2000.000 0.000 0.425 3000.000 0.000 0.209
115 1916.67 1200.00 21 482 35 0.425 2000.000 0.000 0.425 3000.000 0.000 0.209
116 1933.34 1200.00 18 480 48 0.425 2000.000 0.000 0.425 3000.000 0.000 0.209
117 1950.00 1200.00 17 519 34 0.425 2000.000 0.000 0.425 3000.000 0.000 0.209
118 1966.67 1200.00 15 556 37 0.425 2000.000 0.000 0.425 3000.000 0.000 0.209
119 1983.34 1200.00 26 482 30 0.425 2000.000 0.000 0.425 3000.000 0.000 0.209
