# BinNR microsec tot-time (s)  O-Beam H-beam AUX Ampl1(V) f1(Hz) phase1(deg) Ampl1(V) f1(Hz) phase1(deg) chi(pos)
0 0.00 1200.00 99 200 229 0.425 2000.000 0.000 0.425 3000.000 0.000 1.362
1 16.67 1200.00 80 210 223 0.425 2000.000 0.000 0.425 3000.000 0.000 1.362
2 33.33 1200.00 89 216 241 0.425 2000.000 0.000 0.425 3000.000 0.000 1.362
3 50.00 1200.00 76 202 223 0.425 2000.000 0.000 0.425 3000.000 0.000 1.362
4 66.67 1200.00 65 223 233 0.425 2000.000 0.000 0.425 3000.000 0.000 1.362
5 83.33 1200.00 80 215 223 0.425 2000.000 0.000 0.425 3000.000 0.000 1.362
6 100.00 1200.00 85 241 198 0.425 2000.000 0.000 0.425 3000.000 0.000 1.362
7 116.67 1200.00 92 222 225 0.425 2000.000 0.000 0.425 3000.000 0.000 1.362
8 133.33 1200.00 73 222 219 0.425 2000.000 0.000 0.425 3000.000 0.000 1.362
9 150.00 1200.00 92 232 229 0.425 2000.000 0.000 0.425 3000.000 0.000 1.362
10 166.67 1200.00 79 226 222 0.425 2000.000 0.000 0.425 3000.000 0.000 1.362
11 183.33 1200.00 89 258 223 0.425 2000.000 0.000 0.425 3000.000 0.000 1.362
12 200.00 1200.00 86 214 253 0.425 2000.000 0.000 0.425 3000.000 0.000 1.362
13 216.67 1200.00 87 233 206 0.425 2000.000 0.000 0.425 3000.000 0.000 1.362
14 233.33 1200.00 86 228 267 0.425 2000.000 0.000 0.425 3000.000 0.000 1.362
15 250.00 1200.00 87 185 200 0.425 2000.000 0.000 0.425 3000.000 0.000 1.362
16 266.67 1200.00 75 228 196 0.425 2000.000 0.000 0.425 3000.000 0.000 1.362
17 283.33 1200.00 87 222 220 0.425 2000.000 0.000 0.425 3000.000 0.000 1.362
18 300.00 1200.00 85 234 224 0.425 2000.000 0.000 0.425 3000.000 0.000 1.362
19 316.67 1200.00 75 225 225 0.425 2000.000 0.000 0.425 3000.000 0.000 1.362
20 333.33 1200.00 82 241 223 0.425 2000.000 0.000 0.425 3000.000 0.000 1.362
21 350.00 1200.00 79 260 246 0.425 2000.000 0.000 0.425 3000.000 0.000 1.362
22 366.67 1200.00 78 235 219 0.425 2000.000 0.000 0.425 3000.000 0.000 1.362
23 383.33 1200.00 92 239 232 0.425 2000.000 0.000 0.425 3000.000 0.000 1.362
24 400.00 1200.00 87 224 208 0.425 2000.000 0.000 0.425 3000.000 0.000 1.362
25 416.67 1200.00 77 227 226 0.425 2000.000 0.000 0.425 3000.000 0.000 1.362
26 433.33 1200.00 80 213 216 0.425 2000.000 0.000 0.425 3000.000 0.000 1.362
27 450.00 1200.00 78 244 225 0.425 2000.000 0.000 0.425 3000.000 0.000 1.362
28 466.67 1200.00 92 214 208 0.425 2000.000 0.000 0.425 3000.000 0.000 1.362
29 483.33 1200.00 76 239 217 0.425 2000.000 0.000 0.425 3000.000 0.000 1.362
30 500.00 1200.00 78 228 217 0.425 2000.000 0.000 0.425 3000.000 0.000 1.362
31 516.67 1200.00 79 242 213 0.425 2000.000 0.000 0.425 3000.000 0.000 1.362
32 533.33 1200.00 69 238 237 0.425 2000.000 0.000 0.425 3000.000 0.000 1.362
33 550.00 1200.00 61 229 241 0.425 2000.000 0.000 0.425 3000.000 0.000 1.362
34 566.67 1200.00 81 220 239 0.425 2000.000 0.000 0.425 3000.000 0.000 1.362
35 583.33 1200.00 92 233 231 0.425 2000.000 0.000 0.425 3000.000 0.000 1.362
36 600.00 1200.00 93 244 214 0.425 2000.000 0.000 0.425 3000.000 0.000 1.362
37 616.67 1200.00 69 209 231 0.425 2000.000 0.000 0.425 3000.000 0.000 1.362
38 633.33 1200.00 86 206 216 0.425 2000.000 0.000 0.425 3000.000 0.000 1.362
39 650.00 1200.00 71 228 228 0.425 2000.000 0.000 0.425 3000.000 0.000 1.362
40 666.67 1200.00 82 238 215 0.425 2000.000 0.000 0.425 3000.000 0.000 1.362
41 683.33 1200.00 88 214 235 0.425 2000.000 0.000 0.425 3000.000 0.000 1.362
42 700.00 1200.00 101 241 217 0.425 2000.000 0.000 0.425 3000.000 0.000 1.362
43 716.67 1200.00 86 222 201 0.425 2000.000 0.000 0.425 3000.000 0.000 1.362
44 733.33 1200.00 89 231 228 0.425 2000.000 0.000 0.425 3000.000 0.000 1.362
45 750.00 1200.00 80 238 240 0.425 2000.000 0.000 0.425 3000.000 0.000 1.362
46 766.67 1200.00 67 272 208 0.425 2000.000 0.000 0.425 3000.000 0.000 1.362
47 783.33 1200.00 91 223 219 0.425 2000.000 0.000 0.425 3000.000 0.000 1.362
48 800.00 1200.00 71 242 222 0.425 2000.000 0.000 0.425 3000.000 0.000 1.362
49 816.67 1200.00 82 238 230 0.425 2000.000 0.000 0.425 3000.000 0.000 1.362
50 833.34 1200.00 98 237 219 0.425 2000.000 0.000 0.425 3000.000 0.000 1.362
51 850.00 1200.00 88 234 228 0.425 2000.000 0.000 0.425 3000.000 0.000 1.362
52 866.67 1200.00 66 238 226 0.425 2000.000 0.000 0.425 3000.000 0.000 1.362
53 883.34 1200.00 83 247 201 0.425 2000.000 0.000 0.425 3000.000 0.000 1.362
54 900.00 1200.00 81 232 247 0.425 2000.000 0.000 0.425 3000.000 0.000 1.362
55 916.67 1200.00 82 236 214 0.425 2000.000 0.000 0.425 3000.000 0.000 1.362
56 933.34 1200.00 98 256 213 0.425 2000.000 0.000 0.425 3000.000 0.000 1.362
57 950.00 1200.00 93 235 197 0.425 2000.000 0.000 0.425 3000.000 0.000 1.362
58 966.67 1200.00 76 230 200 0.425 2000.000 0.000 0.425 3000.000 0.000 1.362
59 983.34 1200.00 79 222 228 0.425 2000.000 0.000 0.425 3000.000 0.000 1.362
60 1000.00 1200.00 85 212 215 0.425 2000.000 0.000 0.425 3000.000 0.000 1.362
61 1016.67 1200.00 85 217 214 0.425 2000.000 0.000 0.425 3000.000 0.000 1.362
62 1033.34 1200.00 87 236 250 0.425 2000.000 0.000 0.425 3000.000 0.000 1.362
63 1050.00 1200.00 86 226 249 0.425 2000.000 0.000 0.425 3000.000 0.000 1.362
64 1066.67 1200.00 85 220 229 0.425 2000.000 0.000 0.425 3000.000 0.000 1.362
65 1083.34 1200.00 88 231 232 0.425 2000.000 0.000 0.425 3000.000 0.000 1.362
66 1100.00 1200.00 82 227 244 0.425 2000.000 0.000 0.425 3000.000 0.000 1.362
67 1116.67 1200.00 83 220 196 0.425 2000.000 0.000 0.425 3000.000 0.000 1.362
68 1133.34 1200.00 74 222 223 0.425 2000.000 0.000 0.425 3000.000 0.000 1.362
69 1150.00 1200.00 87 248 249 0.425 2000.000 0.000 0.425 3000.000 0.000 1.362
70 1166.67 1200.00 73 225 233 0.425 2000.000 0.000 0.425 3000.000 0.000 1.362
71 1183.34 1200.00 93 232 231 0.425 2000.000 0.000 0.425 3000.000 0.000 1.362
72 1200.00 1200.00 65 245 213 0.425 2000.000 0.000 0.425 3000.000 0.000 1.362
73 1216.67 1200.00 88 235 265 0.425 2000.000 0.000 0.425 3000.000 0.000 1.362
74 1233.34 1200.00 88 228 215 0.425 2000.000 0.000 0.425 3000.000 0.000 1.362
75 1250.00 1200.00 64 243 219 0.425 2000.000 0.000 0.425 3000.000 0.000 1.362
76 1266.67 1200.00 94 233 209 0.425 2000.000 0.000 0.425 3000.000 0.000 1.362
77 1283.34 1200.00 66 262 209 0.425 2000.000 0.000 0.425 3000.000 0.000 1.362
78 1300.00 1200.00 79 258 226 0.425 2000.000 0.000 0.425 3000.000 0.000 1.362
79 1316.67 1200.00 73 268 211 0.425 2000.000 0.000 0.425 3000.000 0.000 1.362
80 1333.34 1200.00 81 239 244 0.425 2000.000 0.000 0.425 3000.000 0.000 1.362
81 1350.00 1200.00 76 218 237 0.425 2000.000 0.000 0.425 3000.000 0.000 1.362
82 1366.67 1200.00 76 213 229 0.425 2000.000 0.000 0.425 3000.000 0.000 1.362
83 1383.34 1200.00 88 241 234 0.425 2000.000 0.000 0.425 3000.000 0.000 1.362
84 1400.00 1200.00 81 207 228 0.425 2000.000 0.000 0.425 3000.000 0.000 1.362
85 1416.67 1200.00 103 213 220 0.425 2000.000 0.000 0.425 3000.000 0.000 1.362
86 1433.34 1200.00 85 235 218 0.425 2000.000 0.000 0.425 3000.000 0.000 1.362
87 1450.00 1200.00 93 206 229 0.425 2000.000 0.000 0.425 3000.000 0.000 1.362
88 1466.67 1200.00 94 244 213 0.425 2000.000 0.000 0.425 3000.000 0.000 1.362
89 1483.34 1200.00 85 225 207 0.425 2000.000 0.000 0.425 3000.000 0.000 1.362
90 1500.00 1200.00 87 206 239 0.425 2000.000 0.000 0.425 3000.000 0.000 1.362
91 1516.67 1200.00 76 254 224 0.425 2000.000 0.000 0.425 3000.000 0.000 1.362
92 1533.34 1200.00 71 243 209 0.425 2000.000 0.000 0.425 3000.000 0.000 1.362
93 1550.00 1200.00 103 226 216 0.425 2000.000 0.000 0.425 3000.000 0.000 1.362
94 1566.67 1200.00 74 254 212 0.425 2000.000 0.000 0.425 3000.000 0.000 1.362
95 1583.34 1200.00 88 238 242 0.425 2000.000 0.000 0.425 3000.000 0.000 1.362
96 1600.00 1200.00 94 201 236 0.425 2000.000 0.000 0.425 3000.000 0.000 1.362
97 1616.67 1200.00 81 219 190 0.425 2000.000 0.000 0.425 3000.000 0.000 1.362
98 1633.34 1200.00 98 238 222 0.425 2000.000 0.000 0.425 3000.000 0.000 1.362
99 1650.00 1200.00 67 234 230 0.425 2000.000 0.000 0.425 3000.000 0.000 1.362
100 1666.67 1200.00 95 236 212 0.425 2000.000 0.000 0.425 3000.000 0.000 1.362
101 1683.34 1200.00 85 258 216 0.425 2000.000 0.000 0.425 3000.000 0.000 1.362
102 1700.00 1200.00 78 255 187 0.425 2000.000 0.000 0.425 3000.000 0.000 1.362
103 1716.67 1200.00 107 243 205 0.425 2000.000 0.000 0.425 3000.000 0.000 1.362
104 1733.34 1200.00 77 237 241 0.425 2000.000 0.000 0.425 3000.000 0.000 1.362
105 1750.00 1200.00 86 230 242 0.425 2000.000 0.000 0.425 3000.000 0.000 1.362
106 1766.67 1200.00 75 221 218 0.425 2000.000 0.000 0.425 3000.000 0.000 1.362
107 1783.34 1200.00 86 215 224 0.425 2000.000 0.000 0.425 3000.000 0.000 1.362
108 1800.00 1200.00 96 241 237 0.425 2000.000 0.000 0.425 3000.000 0.000 1.362
109 1816.67 1200.00 65 235 220 0.425 2000.000 0.000 0.425 3000.000 0.000 1.362
110 1833.34 1200.00 96 229 216 0.425 2000.000 0.000 0.425 3000.000 0.000 1.362
111 1850.00 1200.00 105 225 244 0.425 2000.000 0.000 0.425 3000.000 0.000 1.362
112 1866.67 1200.00 93 253 215 0.425 2000.000 0.000 0.425 3000.000 0.000 1.362
113 1883.34 1200.00 78 267 233 0.425 2000.000 0.000 0.425 3000.000 0.000 1.362
114 1900.00 1200.00 78 225 232 0.425 2000.000 0.000 0.425 3000.000 0.000 1.362
115 1916.67 1200.00 83 229 228 0.425 2000.000 0.000 0.425 3000.000 0.000 1.362
116 1933.34 1200.00 78 243 225 0.425 2000.000 0.000 0.425 3000.000 0.000 1.362
117 1950.00 1200.00 92 261 241 0.425 2000.000 0.000 0.425 3000.000 0.000 1.362
118 1966.67 1200.00 80 217 233 0.425 2000.000 0.000 0.425 3000.000 0.000 1.362
119 1983.34 1200.00 57 217 192 0.425 2000.000 0.000 0.425 3000.000 0.000 1.362
