# BinNR microsec tot-time (s)  O-Beam H-beam AUX Ampl1(V) f1(Hz) phase1(deg) Ampl1(V) f1(Hz) phase1(deg) chi(pos)
0 0.00 1200.00 23 521 40 0.425 2000.000 0.000 0.425 3000.000 0.000 0.505
1 16.67 1200.00 18 514 47 0.425 2000.000 0.000 0.425 3000.000 0.000 0.505
2 33.33 1200.00 18 485 39 0.425 2000.000 0.000 0.425 3000.000 0.000 0.505
3 50.00 1200.00 22 500 37 0.425 2000.000 0.000 0.425 3000.000 0.000 0.505
4 66.67 1200.00 17 476 42 0.425 2000.000 0.000 0.425 3000.000 0.000 0.505
5 83.33 1200.00 17 505 46 0.425 2000.000 0.000 0.425 3000.000 0.000 0.505
6 100.00 1200.00 22 488 29 0.425 2000.000 0.000 0.425 3000.000 0.000 0.505
7 116.67 1200.00 20 488 32 0.425 2000.000 0.000 0.425 3000.000 0.000 0.505
8 133.33 1200.00 21 496 29 0.425 2000.000 0.000 0.425 3000.000 0.000 0.505
9 150.00 1200.00 30 492 36 0.425 2000.000 0.000 0.425 3000.000 0.000 0.505
10 166.67 1200.00 17 491 54 0.425 2000.000 0.000 0.425 3000.000 0.000 0.505
11 183.33 1200.00 20 518 40 0.425 2000.000 0.000 0.425 3000.000 0.000 0.505
12 200.00 1200.00 26 484 41 0.425 2000.000 0.000 0.425 3000.000 0.000 0.505
13 216.67 1200.00 34 526 34 0.425 2000.000 0.000 0.425 3000.000 0.000 0.505
14 233.33 1200.00 29 544 48 0.425 2000.000 0.000 0.425 3000.000 0.000 0.505
15 250.00 1200.00 37 462 40 0.425 2000.000 0.000 0.425 3000.000 0.000 0.505
16 266.67 1200.00 27 512 43 0.425 2000.000 0.000 0.425 3000.000 0.000 0.505
17 283.33 1200.00 19 504 36 0.425 2000.000 0.000 0.425 3000.000 0.000 0.505
18 300.00 1200.00 22 484 27 0.425 2000.000 0.000 0.425 3000.000 0.000 0.505
19 316.67 1200.00 17 495 35 0.425 2000.000 0.000 0.425 3000.000 0.000 0.505
20 333.33 1200.00 19 483 42 0.425 2000.000 0.000 0.425 3000.000 0.000 0.505
21 350.00 1200.00 15 540 26 0.425 2000.000 0.000 0.425 3000.000 0.000 0.505
22 366.67 1200.00 20 527 40 0.425 2000.000 0.000 0.425 3000.000 0.000 0.505
23 383.33 1200.00 16 528 52 0.425 2000.000 0.000 0.425 3000.000 0.000 0.505
24 400.00 1200.00 14 517 40 0.425 2000.000 0.000 0.425 3000.000 0.000 0.505
25 416.67 1200.00 24 502 47 0.425 2000.000 0.000 0.425 3000.000 0.000 0.505
26 433.33 1200.00 20 495 57 0.425 2000.000 0.000 0.425 3000.000 0.000 0.505
27 450.00 1200.00 16 562 65 0.425 2000.000 0.000 0.425 3000.000 0.000 0.505
28 466.67 1200.00 20 524 66 0.425 2000.000 0.000 0.425 3000.000 0.000 0.505
29 483.33 1200.00 23 514 53 0.425 2000.000 0.000 0.425 3000.000 0.000 0.505
30 500.00 1200.00 20 513 60 0.425 2000.000 0.000 0.425 3000.000 0.000 0.505
31 516.67 1200.00 30 550 73 0.425 2000.000 0.000 0.425 3000.000 0.000 0.505
32 533.33 1200.00 19 544 53 0.425 2000.000 0.000 0.425 3000.000 0.000 0.505
33 550.00 1200.00 26 535 46 0.425 2000.000 0.000 0.425 3000.000 0.000 0.505
34 566.67 1200.00 25 515 51 0.425 2000.000 0.000 0.425 3000.000 0.000 0.505
35 583.33 1200.00 30 553 46 0.425 2000.000 0.000 0.425 3000.000 0.000 0.505
36 600.00 1200.00 28 514 31 0.425 2000.000 0.000 0.425 3000.000 0.000 0.505
37 616.67 1200.00 25 490 33 0.425 2000.000 0.000 0.425 3000.000 0.000 0.505
38 633.33 1200.00 36 525 34 0.425 2000.000 0.000 0.425 3000.000 0.000 0.505
39 650.00 1200.00 24 503 36 0.425 2000.000 0.000 0.425 3000.000 0.000 0.505
40 666.67 1200.00 17 520 31 0.425 2000.000 0.000 0.425 3000.000 0.000 0.505
41 683.33 1200.00 28 463 38 0.425 2000.000 0.000 0.425 3000.000 0.000 0.505
42 700.00 1200.00 21 482 44 0.425 2000.000 0.000 0.425 3000.000 0.000 0.505
43 716.67 1200.00 28 473 25 0.425 2000.000 0.000 0.425 3000.000 0.000 0.505
44 733.33 1200.00 22 485 33 0.425 2000.000 0.000 0.425 3000.000 0.000 0.505
45 750.00 1200.00 16 481 38 0.425 2000.000 0.000 0.425 3000.000 0.000 0.505
46 766.67 1200.00 22 511 38 0.425 2000.000 0.000 0.425 3000.000 0.000 0.505
47 783.33 1200.00 26 463 44 0.425 2000.000 0.000 0.425 3000.000 0.000 0.505
48 800.00 1200.00 23 502 50 0.425 2000.000 0.000 0.425 3000.000 0.000 0.505
49 816.67 1200.00 31 497 43 0.425 2000.000 0.000 0.425 3000.000 0.000 0.505
50 833.34 1200.00 17 522 49 0.425 2000.000 0.000 0.425 3000.000 0.000 0.505
51 850.00 1200.00 26 503 40 0.425 2000.000 0.000 0.425 3000.000 0.000 0.505
52 866.67 1200.00 27 544 54 0.425 2000.000 0.000 0.425 3000.000 0.000 0.505
53 883.34 1200.00 24 528 51 0.425 2000.000 0.000 0.425 3000.000 0.000 0.505
54 900.00 1200.00 21 527 62 0.425 2000.000 0.000 0.425 3000.000 0.000 0.505
55 916.67 1200.00 18 539 71 0.425 2000.000 0.000 0.425 3000.000 0.000 0.505
56 933.34 1200.00 21 566 66 0.425 2000.000 0.000 0.425 3000.000 0.000 0.505
57 950.00 1200.00 12 515 54 0.425 2000.000 0.000 0.425 3000.000 0.000 0.505
58 966.67 1200.00 23 525 37 0.425 2000.000 0.000 0.425 3000.000 0.000 0.505
59 983.34 1200.00 16 555 39 0.425 2000.000 0.000 0.425 3000.000 0.000 0.505
60 1000.00 1200.00 23 530 51 0.425 2000.000 0.000 0.425 3000.000 0.000 0.505
61 1016.67 1200.00 24 538 39 0.425 2000.000 0.000 0.425 3000.000 0.000 0.505
62 1033.34 1200.00 16 524 40 0.425 2000.000 0.000 0.425 3000.000 0.000 0.505
63 1050.00 1200.00 27 516 34 0.425 2000.000 0.000 0.425 3000.000 0.000 0.505
64 1066.67 1200.00 18 506 39 0.425 2000.000 0.000 0.425 3000.000 0.000 0.505
65 1083.34 1200.00 20 498 42 0.425 2000.000 0.000 0.425 3000.000 0.000 0.505
66 1100.00 1200.00 22 480 23 0.425 2000.000 0.000 0.425 3000.000 0.000 0.505
67 1116.67 1200.00 29 486 35 0.425 2000.000 0.000 0.425 3000.000 0.000 0.505
68 1133.34 1200.00 20 486 46 0.425 2000.000 0.000 0.425 3000.000 0.000 0.505
69 1150.00 1200.00 29 522 49 0.425 2000.000 0.000 0.425 3000.000 0.000 0.505
70 1166.67 1200.00 26 515 38 0.425 2000.000 0.000 0.425 3000.000 0.000 0.505
71 1183.34 1200.00 24 508 42 0.425 2000.000 0.000 0.425 3000.000 0.000 0.505
72 1200.00 1200.00 29 520 38 0.425 2000.000 0.000 0.425 3000.000 0.000 0.505
73 1216.67 1200.00 27 501 41 0.425 2000.000 0.000 0.425 3000.000 0.000 0.505
74 1233.34 1200.00 35 563 36 0.425 2000.000 0.000 0.425 3000.000 0.000 0.505
75 1250.00 1200.00 39 500 43 0.425 2000.000 0.000 0.425 3000.000 0.000 0.505
76 1266.67 1200.00 31 482 33 0.425 2000.000 0.000 0.425 3000.000 0.000 0.505
77 1283.34 1200.00 19 537 34 0.425 2000.000 0.000 0.425 3000.000 0.000 0.505
78 1300.00 1200.00 22 497 41 0.425 2000.000 0.000 0.425 3000.000 0.000 0.505
79 1316.67 1200.00 18 471 33 0.425 2000.000 0.000 0.425 3000.000 0.000 0.505
80 1333.34 1200.00 19 531 23 0.425 2000.000 0.000 0.425 3000.000 0.000 0.505
81 1350.00 1200.00 10 540 39 0.425 2000.000 0.000 0.425 3000.000 0.000 0.505
82 1366.67 1200.00 22 510 38 0.425 2000.000 0.000 0.425 3000.000 0.000 0.505
83 1383.34 1200.00 17 548 42 0.425 2000.000 0.000 0.425 3000.000 0.000 0.505
84 1400.00 1200.00 16 530 44 0.425 2000.000 0.000 0.425 3000.000 0.000 0.505
85 1416.67 1200.00 13 509 51 0.425 2000.000 0.000 0.425 3000.000 0.000 0.505
86 1433.34 1200.00 26 527 51 0.425 2000.000 0.000 0.425 3000.000 0.000 0.505
87 1450.00 1200.00 15 510 56 0.425 2000.000 0.000 0.425 3000.000 0.000 0.505
88 1466.67 1200.00 17 514 63 0.425 2000.000 0.000 0.425 3000.000 0.000 0.505
89 1483.34 1200.00 25 537 56 0.425 2000.000 0.000 0.425 3000.000 0.000 0.505
90 1500.00 1200.00 11 517 55 0.425 2000.000 0.000 0.425 3000.000 0.000 0.505
91 1516.67 1200.00 33 506 56 0.425 2000.000 0.000 0.425 3000.000 0.000 0.505
92 1533.34 1200.00 24 514 61 0.425 2000.000 0.000 0.425 3000.000 0.000 0.505
93 1550.00 1200.00 24 519 59 0.425 2000.000 0.000 0.425 3000.000 0.000 0.505
94 1566.67 1200.00 33 501 52 0.425 2000.000 0.000 0.425 3000.000 0.000 0.505
95 1583.34 1200.00 21 506 31 0.425 2000.000 0.000 0.425 3000.000 0.000 0.505
96 1600.00 1200.00 25 510 26 0.425 2000.000 0.000 0.425 3000.000 0.000 0.505
97 1616.67 1200.00 38 512 37 0.425 2000.000 0.000 0.425 3000.000 0.000 0.505
98 1633.34 1200.00 34 490 34 0.425 2000.000 0.000 0.425 3000.000 0.000 0.505
99 1650.00 1200.00 25 546 35 0.425 2000.000 0.000 0.425 3000.000 0.000 0.505
100 1666.67 1200.00 25 502 34 0.425 2000.000 0.000 0.425 3000.000 0.000 0.505
101 1683.34 1200.00 14 459 32 0.425 2000.000 0.000 0.425 3000.000 0.000 0.505
102 1700.00 1200.00 22 493 39 0.425 2000.000 0.000 0.425 3000.000 0.000 0.505
103 1716.67 1200.00 21 451 38 0.425 2000.000 0.000 0.425 3000.000 0.000 0.505
104 1733.34 1200.00 32 525 37 0.425 2000.000 0.000 0.425 3000.000 0.000 0.505
105 1750.00 1200.00 20 490 34 0.425 2000.000 0.000 0.425 3000.000 0.000 0.505
106 1766.67 1200.00 18 478 42 0.425 2000.000 0.000 0.425 3000.000 0.000 0.505
107 1783.34 1200.00 19 495 35 0.425 2000.000 0.000 0.425 3000.000 0.000 0.505
108 1800.00 1200.00 19 542 45 0.425 2000.000 0.000 0.425 3000.000 0.000 0.505
109 1816.67 1200.00 25 523 44 0.425 2000.000 0.000 0.425 3000.000 0.000 0.505
110 1833.34 1200.00 19 538 65 0.425 2000.000 0.000 0.425 3000.000 0.000 0.505
111 1850.00 1200.00 17 554 45 0.425 2000.000 0.000 0.425 3000.000 0.000 0.505
112 1866.67 1200.00 21 509 59 0.425 2000.000 0.000 0.425 3000.000 0.000 0.505
113 1883.34 1200.00 23 534 61 0.425 2000.000 0.000 0.425 3000.000 0.000 0.505
114 1900.00 1200.00 20 546 63 0.425 2000.000 0.000 0.425 3000.000 0.000 0.505
115 1916.67 1200.00 19 552 56 0.425 2000.000 0.000 0.425 3000.000 0.000 0.505
116 1933.34 1200.00 25 524 59 0.425 2000.000 0.000 0.425 3000.000 0.000 0.505
117 1950.00 1200.00 22 512 50 0.425 2000.000 0.000 0.425 3000.000 0.000 0.505
118 1966.67 1200.00 21 532 38 0.425 2000.000 0.000 0.425 3000.000 0.000 0.505
119 1983.34 1200.00 18 491 28 0.425 2000.000 0.000 0.425 3000.000 0.000 0.505
