# BinNR microsec tot-time (s)  O-Beam H-beam AUX Ampl1(V) f1(Hz) phase1(deg) Ampl1(V) f1(Hz) phase1(deg) chi(pos)
0 0.00 1200.00 81 249 200 0.425 2000.000 0.000 0.425 3000.000 0.000 1.219
1 16.67 1200.00 72 248 200 0.425 2000.000 0.000 0.425 3000.000 0.000 1.219
2 33.33 1200.00 68 253 223 0.425 2000.000 0.000 0.425 3000.000 0.000 1.219
3 50.00 1200.00 78 237 207 0.425 2000.000 0.000 0.425 3000.000 0.000 1.219
4 66.67 1200.00 88 239 211 0.425 2000.000 0.000 0.425 3000.000 0.000 1.219
5 83.33 1200.00 78 247 236 0.425 2000.000 0.000 0.425 3000.000 0.000 1.219
6 100.00 1200.00 91 241 185 0.425 2000.000 0.000 0.425 3000.000 0.000 1.219
7 116.67 1200.00 81 212 229 0.425 2000.000 0.000 0.425 3000.000 0.000 1.219
8 133.33 1200.00 71 224 205 0.425 2000.000 0.000 0.425 3000.000 0.000 1.219
9 150.00 1200.00 85 249 231 0.425 2000.000 0.000 0.425 3000.000 0.000 1.219
10 166.67 1200.00 90 223 218 0.425 2000.000 0.000 0.425 3000.000 0.000 1.219
11 183.33 1200.00 81 221 220 0.425 2000.000 0.000 0.425 3000.000 0.000 1.219
12 200.00 1200.00 88 253 220 0.425 2000.000 0.000 0.425 3000.000 0.000 1.219
13 216.67 1200.00 68 228 211 0.425 2000.000 0.000 0.425 3000.000 0.000 1.219
14 233.33 1200.00 86 241 217 0.425 2000.000 0.000 0.425 3000.000 0.000 1.219
15 250.00 1200.00 84 238 221 0.425 2000.000 0.000 0.425 3000.000 0.000 1.219
16 266.67 1200.00 92 268 229 0.425 2000.000 0.000 0.425 3000.000 0.000 1.219
17 283.33 1200.00 77 265 249 0.425 2000.000 0.000 0.425 3000.000 0.000 1.219
18 300.00 1200.00 88 259 199 0.425 2000.000 0.000 0.425 3000.000 0.000 1.219
19 316.67 1200.00 84 226 193 0.425 2000.000 0.000 0.425 3000.000 0.000 1.219
20 333.33 1200.00 72 233 199 0.425 2000.000 0.000 0.425 3000.000 0.000 1.219
21 350.00 1200.00 83 267 240 0.425 2000.000 0.000 0.425 3000.000 0.000 1.219
22 366.67 1200.00 66 234 211 0.425 2000.000 0.000 0.425 3000.000 0.000 1.219
23 383.33 1200.00 73 235 223 0.425 2000.000 0.000 0.425 3000.000 0.000 1.219
24 400.00 1200.00 76 243 223 0.425 2000.000 0.000 0.425 3000.000 0.000 1.219
25 416.67 1200.00 68 233 218 0.425 2000.000 0.000 0.425 3000.000 0.000 1.219
26 433.33 1200.00 73 249 239 0.425 2000.000 0.000 0.425 3000.000 0.000 1.219
27 450.00 1200.00 70 242 219 0.425 2000.000 0.000 0.425 3000.000 0.000 1.219
28 466.67 1200.00 62 207 255 0.425 2000.000 0.000 0.425 3000.000 0.000 1.219
29 483.33 1200.00 80 244 227 0.425 2000.000 0.000 0.425 3000.000 0.000 1.219
30 500.00 1200.00 73 228 243 0.425 2000.000 0.000 0.425 3000.000 0.000 1.219
31 516.67 1200.00 82 266 262 0.425 2000.000 0.000 0.425 3000.000 0.000 1.219
32 533.33 1200.00 80 214 191 0.425 2000.000 0.000 0.425 3000.000 0.000 1.219
33 550.00 1200.00 79 264 253 0.425 2000.000 0.000 0.425 3000.000 0.000 1.219
34 566.67 1200.00 79 275 196 0.425 2000.000 0.000 0.425 3000.000 0.000 1.219
35 583.33 1200.00 74 245 200 0.425 2000.000 0.000 0.425 3000.000 0.000 1.219
36 600.00 1200.00 65 255 202 0.425 2000.000 0.000 0.425 3000.000 0.000 1.219
37 616.67 1200.00 99 245 235 0.425 2000.000 0.000 0.425 3000.000 0.000 1.219
38 633.33 1200.00 82 215 204 0.425 2000.000 0.000 0.425 3000.000 0.000 1.219
39 650.00 1200.00 88 257 219 0.425 2000.000 0.000 0.425 3000.000 0.000 1.219
40 666.67 1200.00 81 212 205 0.425 2000.000 0.000 0.425 3000.000 0.000 1.219
41 683.33 1200.00 60 233 179 0.425 2000.000 0.000 0.425 3000.000 0.000 1.219
42 700.00 1200.00 96 221 191 0.425 2000.000 0.000 0.425 3000.000 0.000 1.219
43 716.67 1200.00 82 221 218 0.425 2000.000 0.000 0.425 3000.000 0.000 1.219
44 733.33 1200.00 77 255 181 0.425 2000.000 0.000 0.425 3000.000 0.000 1.219
45 750.00 1200.00 83 239 221 0.425 2000.000 0.000 0.425 3000.000 0.000 1.219
46 766.67 1200.00 86 245 228 0.425 2000.000 0.000 0.425 3000.000 0.000 1.219
47 783.33 1200.00 81 217 208 0.425 2000.000 0.000 0.425 3000.000 0.000 1.219
48 800.00 1200.00 78 236 215 0.425 2000.000 0.000 0.425 3000.000 0.000 1.219
49 816.67 1200.00 91 247 221 0.425 2000.000 0.000 0.425 3000.000 0.000 1.219
50 833.34 1200.00 74 264 191 0.425 2000.000 0.000 0.425 3000.000 0.000 1.219
51 850.00 1200.00 74 261 201 0.425 2000.000 0.000 0.425 3000.000 0.000 1.219
52 866.67 1200.00 82 262 240 0.425 2000.000 0.000 0.425 3000.000 0.000 1.219
53 883.34 1200.00 76 304 226 0.425 2000.000 0.000 0.425 3000.000 0.000 1.219
54 900.00 1200.00 60 249 233 0.425 2000.000 0.000 0.425 3000.000 0.000 1.219
55 916.67 1200.00 86 283 225 0.425 2000.000 0.000 0.425 3000.000 0.000 1.219
56 933.34 1200.00 69 284 232 0.425 2000.000 0.000 0.425 3000.000 0.000 1.219
57 950.00 1200.00 77 296 220 0.425 2000.000 0.000 0.425 3000.000 0.000 1.219
58 966.67 1200.00 71 241 236 0.425 2000.000 0.000 0.425 3000.000 0.000 1.219
59 983.34 1200.00 88 238 221 0.425 2000.000 0.000 0.425 3000.000 0.000 1.219
60 1000.00 1200.00 78 251 193 0.425 2000.000 0.000 0.425 3000.000 0.000 1.219
61 1016.67 1200.00 80 236 246 0.425 2000.000 0.000 0.425 3000.000 0.000 1.219
62 1033.34 1200.00 98 257 193 0.425 2000.000 0.000 0.425 3000.000 0.000 1.219
63 1050.00 1200.00 83 254 224 0.425 2000.000 0.000 0.425 3000.000 0.000 1.219
64 1066.67 1200.00 72 219 223 0.425 2000.000 0.000 0.425 3000.000 0.000 1.219
65 1083.34 1200.00 63 226 183 0.425 2000.000 0.000 0.425 3000.000 0.000 1.219
66 1100.00 1200.00 91 264 239 0.425 2000.000 0.000 0.425 3000.000 0.000 1.219
67 1116.67 1200.00 76 245 198 0.425 2000.000 0.000 0.425 3000.000 0.000 1.219
68 1133.34 1200.00 81 235 193 0.425 2000.000 0.000 0.425 3000.000 0.000 1.219
69 1150.00 1200.00 83 246 232 0.425 2000.000 0.000 0.425 3000.000 0.000 1.219
70 1166.67 1200.00 85 270 236 0.425 2000.000 0.000 0.425 3000.000 0.000 1.219
71 1183.34 1200.00 79 255 206 0.425 2000.000 0.000 0.425 3000.000 0.000 1.219
72 1200.00 1200.00 94 225 203 0.425 2000.000 0.000 0.425 3000.000 0.000 1.219
73 1216.67 1200.00 94 236 207 0.425 2000.000 0.000 0.425 3000.000 0.000 1.219
74 1233.34 1200.00 76 229 216 0.425 2000.000 0.000 0.425 3000.000 0.000 1.219
75 1250.00 1200.00 81 259 206 0.425 2000.000 0.000 0.425 3000.000 0.000 1.219
76 1266.67 1200.00 78 240 222 0.425 2000.000 0.000 0.425 3000.000 0.000 1.219
77 1283.34 1200.00 66 269 220 0.425 2000.000 0.000 0.425 3000.000 0.000 1.219
78 1300.00 1200.00 80 229 216 0.425 2000.000 0.000 0.425 3000.000 0.000 1.219
79 1316.67 1200.00 89 256 188 0.425 2000.000 0.000 0.425 3000.000 0.000 1.219
80 1333.34 1200.00 92 241 185 0.425 2000.000 0.000 0.425 3000.000 0.000 1.219
81 1350.00 1200.00 80 224 198 0.425 2000.000 0.000 0.425 3000.000 0.000 1.219
82 1366.67 1200.00 73 240 216 0.425 2000.000 0.000 0.425 3000.000 0.000 1.219
83 1383.34 1200.00 70 223 225 0.425 2000.000 0.000 0.425 3000.000 0.000 1.219
84 1400.00 1200.00 76 248 195 0.425 2000.000 0.000 0.425 3000.000 0.000 1.219
85 1416.67 1200.00 65 265 237 0.425 2000.000 0.000 0.425 3000.000 0.000 1.219
86 1433.34 1200.00 76 242 212 0.425 2000.000 0.000 0.425 3000.000 0.000 1.219
87 1450.00 1200.00 75 258 190 0.425 2000.000 0.000 0.425 3000.000 0.000 1.219
88 1466.67 1200.00 79 229 248 0.425 2000.000 0.000 0.425 3000.000 0.000 1.219
89 1483.34 1200.00 81 251 216 0.425 2000.000 0.000 0.425 3000.000 0.000 1.219
90 1500.00 1200.00 75 251 258 0.425 2000.000 0.000 0.425 3000.000 0.000 1.219
91 1516.67 1200.00 79 261 249 0.425 2000.000 0.000 0.425 3000.000 0.000 1.219
92 1533.34 1200.00 83 243 262 0.425 2000.000 0.000 0.425 3000.000 0.000 1.219
93 1550.00 1200.00 84 236 204 0.425 2000.000 0.000 0.425 3000.000 0.000 1.219
94 1566.67 1200.00 87 254 236 0.425 2000.000 0.000 0.425 3000.000 0.000 1.219
95 1583.34 1200.00 81 238 229 0.425 2000.000 0.000 0.425 3000.000 0.000 1.219
96 1600.00 1200.00 75 267 197 0.425 2000.000 0.000 0.425 3000.000 0.000 1.219
97 1616.67 1200.00 87 226 202 0.425 2000.000 0.000 0.425 3000.000 0.000 1.219
98 1633.34 1200.00 92 232 189 0.425 2000.000 0.000 0.425 3000.000 0.000 1.219
99 1650.00 1200.00 80 251 187 0.425 2000.000 0.000 0.425 3000.000 0.000 1.219
100 1666.67 1200.00 101 245 187 0.425 2000.000 0.000 0.425 3000.000 0.000 1.219
101 1683.34 1200.00 85 242 187 0.425 2000.000 0.000 0.425 3000.000 0.000 1.219
102 1700.00 1200.00 86 217 205 0.425 2000.000 0.000 0.425 3000.000 0.000 1.219
103 1716.67 1200.00 72 243 208 0.425 2000.000 0.000 0.425 3000.000 0.000 1.219
104 1733.34 1200.00 94 212 200 0.425 2000.000 0.000 0.425 3000.000 0.000 1.219
105 1750.00 1200.00 106 213 201 0.425 2000.000 0.000 0.425 3000.000 0.000 1.219
106 1766.67 1200.00 87 235 208 0.425 2000.000 0.000 0.425 3000.000 0.000 1.219
107 1783.34 1200.00 93 233 209 0.425 2000.000 0.000 0.425 3000.000 0.000 1.219
108 1800.00 1200.00 87 246 221 0.425 2000.000 0.000 0.425 3000.000 0.000 1.219
109 1816.67 1200.00 84 294 228 0.425 2000.000 0.000 0.425 3000.000 0.000 1.219
110 1833.34 1200.00 81 258 211 0.425 2000.000 0.000 0.425 3000.000 0.000 1.219
111 1850.00 1200.00 86 245 209 0.425 2000.000 0.000 0.425 3000.000 0.000 1.219
112 1866.67 1200.00 86 301 229 0.425 2000.000 0.000 0.425 3000.000 0.000 1.219
113 1883.34 1200.00 76 261 216 0.425 2000.000 0.000 0.425 3000.000 0.000 1.219
114 1900.00 1200.00 85 281 222 0.425 2000.000 0.000 0.425 3000.000 0.000 1.219
115 1916.67 1200.00 72 283 209 0.425 2000.000 0.000 0.425 3000.000 0.000 1.219
116 1933.34 1200.00 66 243 225 0.425 2000.000 0.000 0.425 3000.000 0.000 1.219
117 1950.00 1200.00 88 249 253 0.425 2000.000 0.000 0.425 3000.000 0.000 1.219
118 1966.67 1200.00 78 275 197 0.425 2000.000 0.000 0.425 3000.000 0.000 1.219
119 1983.34 1200.00 71 289 176 0.425 2000.000 0.000 0.425 3000.000 0.000 1.219
