# BinNR microsec tot-time (s)  O-Beam H-beam AUX Ampl1(V) f1(Hz) phase1(deg) Ampl1(V) f1(Hz) phase1(deg) chi(pos)
0 0.00 1200.00 59 349 142 0.425 2000.000 0.000 0.425 3000.000 0.000 0.923
1 16.67 1200.00 49 302 148 0.425 2000.000 0.000 0.425 3000.000 0.000 0.923
2 33.33 1200.00 49 333 142 0.425 2000.000 0.000 0.425 3000.000 0.000 0.923
3 50.00 1200.00 46 341 142 0.425 2000.000 0.000 0.425 3000.000 0.000 0.923
4 66.67 1200.00 63 316 149 0.425 2000.000 0.000 0.425 3000.000 0.000 0.923
5 83.33 1200.00 68 303 139 0.425 2000.000 0.000 0.425 3000.000 0.000 0.923
6 100.00 1200.00 59 304 159 0.425 2000.000 0.000 0.425 3000.000 0.000 0.923
7 116.67 1200.00 71 306 133 0.425 2000.000 0.000 0.425 3000.000 0.000 0.923
8 133.33 1200.00 64 312 165 0.425 2000.000 0.000 0.425 3000.000 0.000 0.923
9 150.00 1200.00 67 361 129 0.425 2000.000 0.000 0.425 3000.000 0.000 0.923
10 166.67 1200.00 54 319 145 0.425 2000.000 0.000 0.425 3000.000 0.000 0.923
11 183.33 1200.00 72 287 150 0.425 2000.000 0.000 0.425 3000.000 0.000 0.923
12 200.00 1200.00 66 339 123 0.425 2000.000 0.000 0.425 3000.000 0.000 0.923
13 216.67 1200.00 72 342 148 0.425 2000.000 0.000 0.425 3000.000 0.000 0.923
14 233.33 1200.00 53 369 140 0.425 2000.000 0.000 0.425 3000.000 0.000 0.923
15 250.00 1200.00 55 359 136 0.425 2000.000 0.000 0.425 3000.000 0.000 0.923
16 266.67 1200.00 69 317 160 0.425 2000.000 0.000 0.425 3000.000 0.000 0.923
17 283.33 1200.00 49 378 142 0.425 2000.000 0.000 0.425 3000.000 0.000 0.923
18 300.00 1200.00 66 355 124 0.425 2000.000 0.000 0.425 3000.000 0.000 0.923
19 316.67 1200.00 62 352 136 0.425 2000.000 0.000 0.425 3000.000 0.000 0.923
20 333.33 1200.00 59 356 144 0.425 2000.000 0.000 0.425 3000.000 0.000 0.923
21 350.00 1200.00 50 360 138 0.425 2000.000 0.000 0.425 3000.000 0.000 0.923
22 366.67 1200.00 60 361 141 0.425 2000.000 0.000 0.425 3000.000 0.000 0.923
23 383.33 1200.00 40 356 173 0.425 2000.000 0.000 0.425 3000.000 0.000 0.923
24 400.00 1200.00 46 346 164 0.425 2000.000 0.000 0.425 3000.000 0.000 0.923
25 416.67 1200.00 48 347 142 0.425 2000.000 0.000 0.425 3000.000 0.000 0.923
26 433.33 1200.00 65 324 187 0.425 2000.000 0.000 0.425 3000.000 0.000 0.923
27 450.00 1200.00 45 348 164 0.425 2000.000 0.000 0.425 3000.000 0.000 0.923
28 466.67 1200.00 57 340 182 0.425 2000.000 0.000 0.425 3000.000 0.000 0.923
29 483.33 1200.00 69 339 174 0.425 2000.000 0.000 0.425 3000.000 0.000 0.923
30 500.00 1200.00 59 371 161 0.425 2000.000 0.000 0.425 3000.000 0.000 0.923
31 516.67 1200.00 56 402 197 0.425 2000.000 0.000 0.425 3000.000 0.000 0.923
32 533.33 1200.00 69 381 201 0.425 2000.000 0.000 0.425 3000.000 0.000 0.923
33 550.00 1200.00 70 392 188 0.425 2000.000 0.000 0.425 3000.000 0.000 0.923
34 566.67 1200.00 69 366 155 0.425 2000.000 0.000 0.425 3000.000 0.000 0.923
35 583.33 1200.00 74 355 172 0.425 2000.000 0.000 0.425 3000.000 0.000 0.923
36 600.00 1200.00 63 317 149 0.425 2000.000 0.000 0.425 3000.000 0.000 0.923
37 616.67 1200.00 65 348 137 0.425 2000.000 0.000 0.425 3000.000 0.000 0.923
38 633.33 1200.00 75 351 122 0.425 2000.000 0.000 0.425 3000.000 0.000 0.923
39 650.00 1200.00 61 307 134 0.425 2000.000 0.000 0.425 3000.000 0.000 0.923
40 666.67 1200.00 68 317 101 0.425 2000.000 0.000 0.425 3000.000 0.000 0.923
41 683.33 1200.00 59 285 107 0.425 2000.000 0.000 0.425 3000.000 0.000 0.923
42 700.00 1200.00 75 302 117 0.425 2000.000 0.000 0.425 3000.000 0.000 0.923
43 716.67 1200.00 63 296 124 0.425 2000.000 0.000 0.425 3000.000 0.000 0.923
44 733.33 1200.00 54 283 117 0.425 2000.000 0.000 0.425 3000.000 0.000 0.923
45 750.00 1200.00 47 299 164 0.425 2000.000 0.000 0.425 3000.000 0.000 0.923
46 766.67 1200.00 58 325 126 0.425 2000.000 0.000 0.425 3000.000 0.000 0.923
47 783.33 1200.00 54 337 136 0.425 2000.000 0.000 0.425 3000.000 0.000 0.923
48 800.00 1200.00 45 353 152 0.425 2000.000 0.000 0.425 3000.000 0.000 0.923
49 816.67 1200.00 60 351 178 0.425 2000.000 0.000 0.425 3000.000 0.000 0.923
50 833.34 1200.00 58 396 178 0.425 2000.000 0.000 0.425 3000.000 0.000 0.923
51 850.00 1200.00 66 355 201 0.425 2000.000 0.000 0.425 3000.000 0.000 0.923
52 866.67 1200.00 59 377 180 0.425 2000.000 0.000 0.425 3000.000 0.000 0.923
53 883.34 1200.00 59 389 158 0.425 2000.000 0.000 0.425 3000.000 0.000 0.923
54 900.00 1200.00 69 407 182 0.425 2000.000 0.000 0.425 3000.000 0.000 0.923
55 916.67 1200.00 64 381 179 0.425 2000.000 0.000 0.425 3000.000 0.000 0.923
56 933.34 1200.00 57 422 169 0.425 2000.000 0.000 0.425 3000.000 0.000 0.923
57 950.00 1200.00 63 381 150 0.425 2000.000 0.000 0.425 3000.000 0.000 0.923
58 966.67 1200.00 52 392 170 0.425 2000.000 0.000 0.425 3000.000 0.000 0.923
59 983.34 1200.00 59 374 174 0.425 2000.000 0.000 0.425 3000.000 0.000 0.923
60 1000.00 1200.00 45 371 145 0.425 2000.000 0.000 0.425 3000.000 0.000 0.923
61 1016.67 1200.00 53 333 137 0.425 2000.000 0.000 0.425 3000.000 0.000 0.923
62 1033.34 1200.00 60 324 140 0.425 2000.000 0.000 0.425 3000.000 0.000 0.923
63 1050.00 1200.00 58 290 160 0.425 2000.000 0.000 0.425 3000.000 0.000 0.923
64 1066.67 1200.00 59 291 141 0.425 2000.000 0.000 0.425 3000.000 0.000 0.923
65 1083.34 1200.00 44 320 137 0.425 2000.000 0.000 0.425 3000.000 0.000 0.923
66 1100.00 1200.00 57 317 149 0.425 2000.000 0.000 0.425 3000.000 0.000 0.923
67 1116.67 1200.00 60 289 161 0.425 2000.000 0.000 0.425 3000.000 0.000 0.923
68 1133.34 1200.00 64 306 144 0.425 2000.000 0.000 0.425 3000.000 0.000 0.923
69 1150.00 1200.00 63 315 164 0.425 2000.000 0.000 0.425 3000.000 0.000 0.923
70 1166.67 1200.00 68 310 153 0.425 2000.000 0.000 0.425 3000.000 0.000 0.923
71 1183.34 1200.00 69 324 142 0.425 2000.000 0.000 0.425 3000.000 0.000 0.923
72 1200.00 1200.00 81 331 139 0.425 2000.000 0.000 0.425 3000.000 0.000 0.923
73 1216.67 1200.00 62 360 160 0.425 2000.000 0.000 0.425 3000.000 0.000 0.923
74 1233.34 1200.00 87 319 154 0.425 2000.000 0.000 0.425 3000.000 0.000 0.923
75 1250.00 1200.00 62 366 172 0.425 2000.000 0.000 0.425 3000.000 0.000 0.923
76 1266.67 1200.00 66 367 142 0.425 2000.000 0.000 0.425 3000.000 0.000 0.923
77 1283.34 1200.00 43 370 153 0.425 2000.000 0.000 0.425 3000.000 0.000 0.923
78 1300.00 1200.00 53 363 145 0.425 2000.000 0.000 0.425 3000.000 0.000 0.923
79 1316.67 1200.00 56 365 135 0.425 2000.000 0.000 0.425 3000.000 0.000 0.923
80 1333.34 1200.00 59 376 135 0.425 2000.000 0.000 0.425 3000.000 0.000 0.923
81 1350.00 1200.00 56 345 115 0.425 2000.000 0.000 0.425 3000.000 0.000 0.923
82 1366.67 1200.00 47 322 159 0.425 2000.000 0.000 0.425 3000.000 0.000 0.923
83 1383.34 1200.00 51 349 149 0.425 2000.000 0.000 0.425 3000.000 0.000 0.923
84 1400.00 1200.00 46 333 175 0.425 2000.000 0.000 0.425 3000.000 0.000 0.923
85 1416.67 1200.00 47 355 159 0.425 2000.000 0.000 0.425 3000.000 0.000 0.923
86 1433.34 1200.00 49 366 175 0.425 2000.000 0.000 0.425 3000.000 0.000 0.923
87 1450.00 1200.00 60 338 190 0.425 2000.000 0.000 0.425 3000.000 0.000 0.923
88 1466.67 1200.00 49 341 167 0.425 2000.000 0.000 0.425 3000.000 0.000 0.923
89 1483.34 1200.00 49 352 196 0.425 2000.000 0.000 0.425 3000.000 0.000 0.923
90 1500.00 1200.00 48 374 193 0.425 2000.000 0.000 0.425 3000.000 0.000 0.923
91 1516.67 1200.00 56 368 171 0.425 2000.000 0.000 0.425 3000.000 0.000 0.923
92 1533.34 1200.00 68 348 182 0.425 2000.000 0.000 0.425 3000.000 0.000 0.923
93 1550.00 1200.00 68 361 169 0.425 2000.000 0.000 0.425 3000.000 0.000 0.923
94 1566.67 1200.00 71 361 155 0.425 2000.000 0.000 0.425 3000.000 0.000 0.923
95 1583.34 1200.00 58 347 144 0.425 2000.000 0.000 0.425 3000.000 0.000 0.923
96 1600.00 1200.00 63 357 132 0.425 2000.000 0.000 0.425 3000.000 0.000 0.923
97 1616.67 1200.00 67 354 125 0.425 2000.000 0.000 0.425 3000.000 0.000 0.923
98 1633.34 1200.00 73 334 144 0.425 2000.000 0.000 0.425 3000.000 0.000 0.923
99 1650.00 1200.00 67 307 124 0.425 2000.000 0.000 0.425 3000.000 0.000 0.923
100 1666.67 1200.00 60 314 96 0.425 2000.000 0.000 0.425 3000.000 0.000 0.923
101 1683.34 1200.00 68 300 104 0.425 2000.000 0.000 0.425 3000.000 0.000 0.923
102 1700.00 1200.00 58 320 108 0.425 2000.000 0.000 0.425 3000.000 0.000 0.923
103 1716.67 1200.00 50 300 122 0.425 2000.000 0.000 0.425 3000.000 0.000 0.923
104 1733.34 1200.00 59 296 102 0.425 2000.000 0.000 0.425 3000.000 0.000 0.923
105 1750.00 1200.00 54 302 118 0.425 2000.000 0.000 0.425 3000.000 0.000 0.923
106 1766.67 1200.00 65 294 137 0.425 2000.000 0.000 0.425 3000.000 0.000 0.923
107 1783.34 1200.00 66 327 137 0.425 2000.000 0.000 0.425 3000.000 0.000 0.923
108 1800.00 1200.00 46 317 165 0.425 2000.000 0.000 0.425 3000.000 0.000 0.923
109 1816.67 1200.00 54 383 180 0.425 2000.000 0.000 0.425 3000.000 0.000 0.923
110 1833.34 1200.00 55 342 173 0.425 2000.000 0.000 0.425 3000.000 0.000 0.923
111 1850.00 1200.00 62 354 171 0.425 2000.000 0.000 0.425 3000.000 0.000 0.923
112 1866.67 1200.00 61 398 208 0.425 2000.000 0.000 0.425 3000.000 0.000 0.923
113 1883.34 1200.00 74 362 182 0.425 2000.000 0.000 0.425 3000.000 0.000 0.923
114 1900.00 1200.00 70 394 167 0.425 2000.000 0.000 0.425 3000.000 0.000 0.923
115 1916.67 1200.00 64 357 152 0.425 2000.000 0.000 0.425 3000.000 0.000 0.923
116 1933.34 1200.00 63 432 172 0.425 2000.000 0.000 0.425 3000.000 0.000 0.923
117 1950.00 1200.00 63 378 150 0.425 2000.000 0.000 0.425 3000.000 0.000 0.923
118 1966.67 1200.00 57 392 167 0.425 2000.000 0.000 0.425 3000.000 0.000 0.923
119 1983.34 1200.00 58 338 165 0.425 2000.000 0.000 0.425 3000.000 0.000 0.923
