# BinNR microsec tot-time (s)  O-Beam H-beam AUX Ampl1(V) f1(Hz) phase1(deg) Ampl1(V) f1(Hz) phase1(deg) chi(pos)
0 0.00 1200.00 59 267 204 0.425 2000.000 0.000 0.425 3000.000 0.000 1.077
1 16.67 1200.00 70 284 167 0.425 2000.000 0.000 0.425 3000.000 0.000 1.077
2 33.33 1200.00 73 241 183 0.425 2000.000 0.000 0.425 3000.000 0.000 1.077
3 50.00 1200.00 68 255 156 0.425 2000.000 0.000 0.425 3000.000 0.000 1.077
4 66.67 1200.00 68 253 200 0.425 2000.000 0.000 0.425 3000.000 0.000 1.077
5 83.33 1200.00 77 231 182 0.425 2000.000 0.000 0.425 3000.000 0.000 1.077
6 100.00 1200.00 62 274 205 0.425 2000.000 0.000 0.425 3000.000 0.000 1.077
7 116.67 1200.00 72 239 180 0.425 2000.000 0.000 0.425 3000.000 0.000 1.077
8 133.33 1200.00 63 264 196 0.425 2000.000 0.000 0.425 3000.000 0.000 1.077
9 150.00 1200.00 87 263 187 0.425 2000.000 0.000 0.425 3000.000 0.000 1.077
10 166.67 1200.00 77 278 189 0.425 2000.000 0.000 0.425 3000.000 0.000 1.077
11 183.33 1200.00 86 263 190 0.425 2000.000 0.000 0.425 3000.000 0.000 1.077
12 200.00 1200.00 77 268 200 0.425 2000.000 0.000 0.425 3000.000 0.000 1.077
13 216.67 1200.00 88 288 195 0.425 2000.000 0.000 0.425 3000.000 0.000 1.077
14 233.33 1200.00 79 299 198 0.425 2000.000 0.000 0.425 3000.000 0.000 1.077
15 250.00 1200.00 74 263 211 0.425 2000.000 0.000 0.425 3000.000 0.000 1.077
16 266.67 1200.00 78 286 158 0.425 2000.000 0.000 0.425 3000.000 0.000 1.077
17 283.33 1200.00 59 288 201 0.425 2000.000 0.000 0.425 3000.000 0.000 1.077
18 300.00 1200.00 77 268 175 0.425 2000.000 0.000 0.425 3000.000 0.000 1.077
19 316.67 1200.00 73 276 170 0.425 2000.000 0.000 0.425 3000.000 0.000 1.077
20 333.33 1200.00 66 289 184 0.425 2000.000 0.000 0.425 3000.000 0.000 1.077
21 350.00 1200.00 68 287 189 0.425 2000.000 0.000 0.425 3000.000 0.000 1.077
22 366.67 1200.00 62 290 155 0.425 2000.000 0.000 0.425 3000.000 0.000 1.077
23 383.33 1200.00 67 268 185 0.425 2000.000 0.000 0.425 3000.000 0.000 1.077
24 400.00 1200.00 71 305 223 0.425 2000.000 0.000 0.425 3000.000 0.000 1.077
25 416.67 1200.00 53 262 216 0.425 2000.000 0.000 0.425 3000.000 0.000 1.077
26 433.33 1200.00 75 281 180 0.425 2000.000 0.000 0.425 3000.000 0.000 1.077
27 450.00 1200.00 50 285 197 0.425 2000.000 0.000 0.425 3000.000 0.000 1.077
28 466.67 1200.00 70 274 207 0.425 2000.000 0.000 0.425 3000.000 0.000 1.077
29 483.33 1200.00 67 314 215 0.425 2000.000 0.000 0.425 3000.000 0.000 1.077
30 500.00 1200.00 85 289 218 0.425 2000.000 0.000 0.425 3000.000 0.000 1.077
31 516.67 1200.00 67 331 221 0.425 2000.000 0.000 0.425 3000.000 0.000 1.077
32 533.33 1200.00 62 324 212 0.425 2000.000 0.000 0.425 3000.000 0.000 1.077
33 550.00 1200.00 95 297 200 0.425 2000.000 0.000 0.425 3000.000 0.000 1.077
34 566.67 1200.00 74 311 196 0.425 2000.000 0.000 0.425 3000.000 0.000 1.077
35 583.33 1200.00 85 293 215 0.425 2000.000 0.000 0.425 3000.000 0.000 1.077
36 600.00 1200.00 76 312 178 0.425 2000.000 0.000 0.425 3000.000 0.000 1.077
37 616.67 1200.00 72 256 190 0.425 2000.000 0.000 0.425 3000.000 0.000 1.077
38 633.33 1200.00 74 291 174 0.425 2000.000 0.000 0.425 3000.000 0.000 1.077
39 650.00 1200.00 68 321 137 0.425 2000.000 0.000 0.425 3000.000 0.000 1.077
40 666.67 1200.00 84 245 190 0.425 2000.000 0.000 0.425 3000.000 0.000 1.077
41 683.33 1200.00 71 242 149 0.425 2000.000 0.000 0.425 3000.000 0.000 1.077
42 700.00 1200.00 63 245 179 0.425 2000.000 0.000 0.425 3000.000 0.000 1.077
43 716.67 1200.00 72 243 168 0.425 2000.000 0.000 0.425 3000.000 0.000 1.077
44 733.33 1200.00 70 237 143 0.425 2000.000 0.000 0.425 3000.000 0.000 1.077
45 750.00 1200.00 86 247 162 0.425 2000.000 0.000 0.425 3000.000 0.000 1.077
46 766.67 1200.00 73 277 172 0.425 2000.000 0.000 0.425 3000.000 0.000 1.077
47 783.33 1200.00 76 263 183 0.425 2000.000 0.000 0.425 3000.000 0.000 1.077
48 800.00 1200.00 66 254 185 0.425 2000.000 0.000 0.425 3000.000 0.000 1.077
49 816.67 1200.00 61 292 206 0.425 2000.000 0.000 0.425 3000.000 0.000 1.077
50 833.34 1200.00 72 297 189 0.425 2000.000 0.000 0.425 3000.000 0.000 1.077
51 850.00 1200.00 80 313 212 0.425 2000.000 0.000 0.425 3000.000 0.000 1.077
52 866.67 1200.00 64 322 200 0.425 2000.000 0.000 0.425 3000.000 0.000 1.077
53 883.34 1200.00 89 328 217 0.425 2000.000 0.000 0.425 3000.000 0.000 1.077
54 900.00 1200.00 96 343 212 0.425 2000.000 0.000 0.425 3000.000 0.000 1.077
55 916.67 1200.00 83 362 207 0.425 2000.000 0.000 0.425 3000.000 0.000 1.077
56 933.34 1200.00 67 311 209 0.425 2000.000 0.000 0.425 3000.000 0.000 1.077
57 950.00 1200.00 87 319 194 0.425 2000.000 0.000 0.425 3000.000 0.000 1.077
58 966.67 1200.00 73 320 203 0.425 2000.000 0.000 0.425 3000.000 0.000 1.077
59 983.34 1200.00 65 314 179 0.425 2000.000 0.000 0.425 3000.000 0.000 1.077
60 1000.00 1200.00 80 281 194 0.425 2000.000 0.000 0.425 3000.000 0.000 1.077
61 1016.67 1200.00 67 271 174 0.425 2000.000 0.000 0.425 3000.000 0.000 1.077
62 1033.34 1200.00 66 260 199 0.425 2000.000 0.000 0.425 3000.000 0.000 1.077
63 1050.00 1200.00 79 280 188 0.425 2000.000 0.000 0.425 3000.000 0.000 1.077
64 1066.67 1200.00 68 243 187 0.425 2000.000 0.000 0.425 3000.000 0.000 1.077
65 1083.34 1200.00 60 229 179 0.425 2000.000 0.000 0.425 3000.000 0.000 1.077
66 1100.00 1200.00 55 240 192 0.425 2000.000 0.000 0.425 3000.000 0.000 1.077
67 1116.67 1200.00 74 233 178 0.425 2000.000 0.000 0.425 3000.000 0.000 1.077
68 1133.34 1200.00 72 238 189 0.425 2000.000 0.000 0.425 3000.000 0.000 1.077
69 1150.00 1200.00 66 278 185 0.425 2000.000 0.000 0.425 3000.000 0.000 1.077
70 1166.67 1200.00 62 237 202 0.425 2000.000 0.000 0.425 3000.000 0.000 1.077
71 1183.34 1200.00 93 266 185 0.425 2000.000 0.000 0.425 3000.000 0.000 1.077
72 1200.00 1200.00 90 297 176 0.425 2000.000 0.000 0.425 3000.000 0.000 1.077
73 1216.67 1200.00 75 262 189 0.425 2000.000 0.000 0.425 3000.000 0.000 1.077
74 1233.34 1200.00 77 304 177 0.425 2000.000 0.000 0.425 3000.000 0.000 1.077
75 1250.00 1200.00 89 306 203 0.425 2000.000 0.000 0.425 3000.000 0.000 1.077
76 1266.67 1200.00 70 320 195 0.425 2000.000 0.000 0.425 3000.000 0.000 1.077
77 1283.34 1200.00 87 276 162 0.425 2000.000 0.000 0.425 3000.000 0.000 1.077
78 1300.00 1200.00 70 281 172 0.425 2000.000 0.000 0.425 3000.000 0.000 1.077
79 1316.67 1200.00 67 287 186 0.425 2000.000 0.000 0.425 3000.000 0.000 1.077
80 1333.34 1200.00 69 291 184 0.425 2000.000 0.000 0.425 3000.000 0.000 1.077
81 1350.00 1200.00 71 289 167 0.425 2000.000 0.000 0.425 3000.000 0.000 1.077
82 1366.67 1200.00 84 279 187 0.425 2000.000 0.000 0.425 3000.000 0.000 1.077
83 1383.34 1200.00 65 279 198 0.425 2000.000 0.000 0.425 3000.000 0.000 1.077
84 1400.00 1200.00 60 289 186 0.425 2000.000 0.000 0.425 3000.000 0.000 1.077
85 1416.67 1200.00 58 265 198 0.425 2000.000 0.000 0.425 3000.000 0.000 1.077
86 1433.34 1200.00 66 302 201 0.425 2000.000 0.000 0.425 3000.000 0.000 1.077
87 1450.00 1200.00 66 292 211 0.425 2000.000 0.000 0.425 3000.000 0.000 1.077
88 1466.67 1200.00 70 273 196 0.425 2000.000 0.000 0.425 3000.000 0.000 1.077
89 1483.34 1200.00 73 294 202 0.425 2000.000 0.000 0.425 3000.000 0.000 1.077
90 1500.00 1200.00 76 271 205 0.425 2000.000 0.000 0.425 3000.000 0.000 1.077
91 1516.67 1200.00 64 287 211 0.425 2000.000 0.000 0.425 3000.000 0.000 1.077
92 1533.34 1200.00 65 336 228 0.425 2000.000 0.000 0.425 3000.000 0.000 1.077
93 1550.00 1200.00 95 308 203 0.425 2000.000 0.000 0.425 3000.000 0.000 1.077
94 1566.67 1200.00 78 318 208 0.425 2000.000 0.000 0.425 3000.000 0.000 1.077
95 1583.34 1200.00 78 297 189 0.425 2000.000 0.000 0.425 3000.000 0.000 1.077
96 1600.00 1200.00 90 276 187 0.425 2000.000 0.000 0.425 3000.000 0.000 1.077
97 1616.67 1200.00 78 292 163 0.425 2000.000 0.000 0.425 3000.000 0.000 1.077
98 1633.34 1200.00 99 290 178 0.425 2000.000 0.000 0.425 3000.000 0.000 1.077
99 1650.00 1200.00 85 275 151 0.425 2000.000 0.000 0.425 3000.000 0.000 1.077
100 1666.67 1200.00 80 271 166 0.425 2000.000 0.000 0.425 3000.000 0.000 1.077
101 1683.34 1200.00 59 259 141 0.425 2000.000 0.000 0.425 3000.000 0.000 1.077
102 1700.00 1200.00 70 253 153 0.425 2000.000 0.000 0.425 3000.000 0.000 1.077
103 1716.67 1200.00 79 244 183 0.425 2000.000 0.000 0.425 3000.000 0.000 1.077
104 1733.34 1200.00 63 233 183 0.425 2000.000 0.000 0.425 3000.000 0.000 1.077
105 1750.00 1200.00 76 247 143 0.425 2000.000 0.000 0.425 3000.000 0.000 1.077
106 1766.67 1200.00 82 233 156 0.425 2000.000 0.000 0.425 3000.000 0.000 1.077
107 1783.34 1200.00 56 289 175 0.425 2000.000 0.000 0.425 3000.000 0.000 1.077
108 1800.00 1200.00 67 241 199 0.425 2000.000 0.000 0.425 3000.000 0.000 1.077
109 1816.67 1200.00 78 254 183 0.425 2000.000 0.000 0.425 3000.000 0.000 1.077
110 1833.34 1200.00 87 290 215 0.425 2000.000 0.000 0.425 3000.000 0.000 1.077
111 1850.00 1200.00 63 319 208 0.425 2000.000 0.000 0.425 3000.000 0.000 1.077
112 1866.67 1200.00 90 333 210 0.425 2000.000 0.000 0.425 3000.000 0.000 1.077
113 1883.34 1200.00 86 338 225 0.425 2000.000 0.000 0.425 3000.000 0.000 1.077
114 1900.00 1200.00 72 324 206 0.425 2000.000 0.000 0.425 3000.000 0.000 1.077
115 1916.67 1200.00 75 311 199 0.425 2000.000 0.000 0.425 3000.000 0.000 1.077
116 1933.34 1200.00 64 323 221 0.425 2000.000 0.000 0.425 3000.000 0.000 1.077
117 1950.00 1200.00 63 308 209 0.425 2000.000 0.000 0.425 3000.000 0.000 1.077
118 1966.67 1200.00 67 316 235 0.425 2000.000 0.000 0.425 3000.000 0.000 1.077
119 1983.34 1200.00 70 259 201 0.425 2000.000 0.000 0.425 3000.000 0.000 1.077
