# BinNR microsec tot-time (s)  O-Beam H-beam AUX Ampl1(V) f1(Hz) phase1(deg) Ampl1(V) f1(Hz) phase1(deg) chi(pos)
0 0.00 1200.00 39 423 115 0.425 2000.000 0.000 0.425 3000.000 0.000 0.802
1 16.67 1200.00 29 399 106 0.425 2000.000 0.000 0.425 3000.000 0.000 0.802
2 33.33 1200.00 37 397 97 0.425 2000.000 0.000 0.425 3000.000 0.000 0.802
3 50.00 1200.00 38 334 108 0.425 2000.000 0.000 0.425 3000.000 0.000 0.802
4 66.67 1200.00 39 363 86 0.425 2000.000 0.000 0.425 3000.000 0.000 0.802
5 83.33 1200.00 41 383 94 0.425 2000.000 0.000 0.425 3000.000 0.000 0.802
6 100.00 1200.00 39 354 105 0.425 2000.000 0.000 0.425 3000.000 0.000 0.802
7 116.67 1200.00 42 371 118 0.425 2000.000 0.000 0.425 3000.000 0.000 0.802
8 133.33 1200.00 42 353 98 0.425 2000.000 0.000 0.425 3000.000 0.000 0.802
9 150.00 1200.00 64 342 150 0.425 2000.000 0.000 0.425 3000.000 0.000 0.802
10 166.67 1200.00 52 361 105 0.425 2000.000 0.000 0.425 3000.000 0.000 0.802
11 183.33 1200.00 47 398 111 0.425 2000.000 0.000 0.425 3000.000 0.000 0.802
12 200.00 1200.00 52 400 89 0.425 2000.000 0.000 0.425 3000.000 0.000 0.802
13 216.67 1200.00 44 443 104 0.425 2000.000 0.000 0.425 3000.000 0.000 0.802
14 233.33 1200.00 52 412 116 0.425 2000.000 0.000 0.425 3000.000 0.000 0.802
15 250.00 1200.00 58 420 116 0.425 2000.000 0.000 0.425 3000.000 0.000 0.802
16 266.67 1200.00 66 416 106 0.425 2000.000 0.000 0.425 3000.000 0.000 0.802
17 283.33 1200.00 51 415 93 0.425 2000.000 0.000 0.425 3000.000 0.000 0.802
18 300.00 1200.00 47 374 80 0.425 2000.000 0.000 0.425 3000.000 0.000 0.802
19 316.67 1200.00 40 396 104 0.425 2000.000 0.000 0.425 3000.000 0.000 0.802
20 333.33 1200.00 50 442 105 0.425 2000.000 0.000 0.425 3000.000 0.000 0.802
21 350.00 1200.00 36 414 109 0.425 2000.000 0.000 0.425 3000.000 0.000 0.802
22 366.67 1200.00 26 411 111 0.425 2000.000 0.000 0.425 3000.000 0.000 0.802
23 383.33 1200.00 42 409 109 0.425 2000.000 0.000 0.425 3000.000 0.000 0.802
24 400.00 1200.00 30 424 133 0.425 2000.000 0.000 0.425 3000.000 0.000 0.802
25 416.67 1200.00 35 423 122 0.425 2000.000 0.000 0.425 3000.000 0.000 0.802
26 433.33 1200.00 30 391 120 0.425 2000.000 0.000 0.425 3000.000 0.000 0.802
27 450.00 1200.00 40 451 139 0.425 2000.000 0.000 0.425 3000.000 0.000 0.802
28 466.67 1200.00 38 407 138 0.425 2000.000 0.000 0.425 3000.000 0.000 0.802
29 483.33 1200.00 38 396 131 0.425 2000.000 0.000 0.425 3000.000 0.000 0.802
30 500.00 1200.00 55 404 136 0.425 2000.000 0.000 0.425 3000.000 0.000 0.802
31 516.67 1200.00 51 439 155 0.425 2000.000 0.000 0.425 3000.000 0.000 0.802
32 533.33 1200.00 61 449 140 0.425 2000.000 0.000 0.425 3000.000 0.000 0.802
33 550.00 1200.00 54 442 159 0.425 2000.000 0.000 0.425 3000.000 0.000 0.802
34 566.67 1200.00 60 431 126 0.425 2000.000 0.000 0.425 3000.000 0.000 0.802
35 583.33 1200.00 52 404 116 0.425 2000.000 0.000 0.425 3000.000 0.000 0.802
36 600.00 1200.00 58 435 122 0.425 2000.000 0.000 0.425 3000.000 0.000 0.802
37 616.67 1200.00 54 401 98 0.425 2000.000 0.000 0.425 3000.000 0.000 0.802
38 633.33 1200.00 58 392 98 0.425 2000.000 0.000 0.425 3000.000 0.000 0.802
39 650.00 1200.00 55 378 81 0.425 2000.000 0.000 0.425 3000.000 0.000 0.802
40 666.67 1200.00 36 408 81 0.425 2000.000 0.000 0.425 3000.000 0.000 0.802
41 683.33 1200.00 43 373 65 0.425 2000.000 0.000 0.425 3000.000 0.000 0.802
42 700.00 1200.00 63 358 78 0.425 2000.000 0.000 0.425 3000.000 0.000 0.802
43 716.67 1200.00 34 367 84 0.425 2000.000 0.000 0.425 3000.000 0.000 0.802
44 733.33 1200.00 41 335 87 0.425 2000.000 0.000 0.425 3000.000 0.000 0.802
45 750.00 1200.00 46 343 91 0.425 2000.000 0.000 0.425 3000.000 0.000 0.802
46 766.67 1200.00 44 372 100 0.425 2000.000 0.000 0.425 3000.000 0.000 0.802
47 783.33 1200.00 41 339 109 0.425 2000.000 0.000 0.425 3000.000 0.000 0.802
48 800.00 1200.00 39 380 130 0.425 2000.000 0.000 0.425 3000.000 0.000 0.802
49 816.67 1200.00 39 475 115 0.425 2000.000 0.000 0.425 3000.000 0.000 0.802
50 833.34 1200.00 49 452 146 0.425 2000.000 0.000 0.425 3000.000 0.000 0.802
51 850.00 1200.00 55 452 142 0.425 2000.000 0.000 0.425 3000.000 0.000 0.802
52 866.67 1200.00 43 449 152 0.425 2000.000 0.000 0.425 3000.000 0.000 0.802
53 883.34 1200.00 33 492 129 0.425 2000.000 0.000 0.425 3000.000 0.000 0.802
54 900.00 1200.00 51 468 144 0.425 2000.000 0.000 0.425 3000.000 0.000 0.802
55 916.67 1200.00 43 433 117 0.425 2000.000 0.000 0.425 3000.000 0.000 0.802
56 933.34 1200.00 54 426 109 0.425 2000.000 0.000 0.425 3000.000 0.000 0.802
57 950.00 1200.00 46 464 119 0.425 2000.000 0.000 0.425 3000.000 0.000 0.802
58 966.67 1200.00 49 432 123 0.425 2000.000 0.000 0.425 3000.000 0.000 0.802
59 983.34 1200.00 60 412 83 0.425 2000.000 0.000 0.425 3000.000 0.000 0.802
60 1000.00 1200.00 49 436 114 0.425 2000.000 0.000 0.425 3000.000 0.000 0.802
61 1016.67 1200.00 42 422 94 0.425 2000.000 0.000 0.425 3000.000 0.000 0.802
62 1033.34 1200.00 41 396 108 0.425 2000.000 0.000 0.425 3000.000 0.000 0.802
63 1050.00 1200.00 42 398 105 0.425 2000.000 0.000 0.425 3000.000 0.000 0.802
64 1066.67 1200.00 42 340 105 0.425 2000.000 0.000 0.425 3000.000 0.000 0.802
65 1083.34 1200.00 45 352 116 0.425 2000.000 0.000 0.425 3000.000 0.000 0.802
66 1100.00 1200.00 43 360 105 0.425 2000.000 0.000 0.425 3000.000 0.000 0.802
67 1116.67 1200.00 50 391 92 0.425 2000.000 0.000 0.425 3000.000 0.000 0.802
68 1133.34 1200.00 37 371 97 0.425 2000.000 0.000 0.425 3000.000 0.000 0.802
69 1150.00 1200.00 48 383 112 0.425 2000.000 0.000 0.425 3000.000 0.000 0.802
70 1166.67 1200.00 53 368 104 0.425 2000.000 0.000 0.425 3000.000 0.000 0.802
71 1183.34 1200.00 48 381 125 0.425 2000.000 0.000 0.425 3000.000 0.000 0.802
72 1200.00 1200.00 60 424 98 0.425 2000.000 0.000 0.425 3000.000 0.000 0.802
73 1216.67 1200.00 62 423 116 0.425 2000.000 0.000 0.425 3000.000 0.000 0.802
74 1233.34 1200.00 49 402 107 0.425 2000.000 0.000 0.425 3000.000 0.000 0.802
75 1250.00 1200.00 51 410 93 0.425 2000.000 0.000 0.425 3000.000 0.000 0.802
76 1266.67 1200.00 46 438 99 0.425 2000.000 0.000 0.425 3000.000 0.000 0.802
77 1283.34 1200.00 54 417 121 0.425 2000.000 0.000 0.425 3000.000 0.000 0.802
78 1300.00 1200.00 36 370 88 0.425 2000.000 0.000 0.425 3000.000 0.000 0.802
79 1316.67 1200.00 40 389 93 0.425 2000.000 0.000 0.425 3000.000 0.000 0.802
80 1333.34 1200.00 45 435 99 0.425 2000.000 0.000 0.425 3000.000 0.000 0.802
81 1350.00 1200.00 38 392 103 0.425 2000.000 0.000 0.425 3000.000 0.000 0.802
82 1366.67 1200.00 30 409 115 0.425 2000.000 0.000 0.425 3000.000 0.000 0.802
83 1383.34 1200.00 39 416 118 0.425 2000.000 0.000 0.425 3000.000 0.000 0.802
84 1400.00 1200.00 28 369 98 0.425 2000.000 0.000 0.425 3000.000 0.000 0.802
85 1416.67 1200.00 33 419 129 0.425 2000.000 0.000 0.425 3000.000 0.000 0.802
86 1433.34 1200.00 36 432 137 0.425 2000.000 0.000 0.425 3000.000 0.000 0.802
87 1450.00 1200.00 27 426 109 0.425 2000.000 0.000 0.425 3000.000 0.000 0.802
88 1466.67 1200.00 48 409 138 0.425 2000.000 0.000 0.425 3000.000 0.000 0.802
89 1483.34 1200.00 43 394 119 0.425 2000.000 0.000 0.425 3000.000 0.000 0.802
90 1500.00 1200.00 54 406 155 0.425 2000.000 0.000 0.425 3000.000 0.000 0.802
91 1516.67 1200.00 46 417 150 0.425 2000.000 0.000 0.425 3000.000 0.000 0.802
92 1533.34 1200.00 50 420 149 0.425 2000.000 0.000 0.425 3000.000 0.000 0.802
93 1550.00 1200.00 47 436 137 0.425 2000.000 0.000 0.425 3000.000 0.000 0.802
94 1566.67 1200.00 56 447 108 0.425 2000.000 0.000 0.425 3000.000 0.000 0.802
95 1583.34 1200.00 73 428 90 0.425 2000.000 0.000 0.425 3000.000 0.000 0.802
96 1600.00 1200.00 49 414 108 0.425 2000.000 0.000 0.425 3000.000 0.000 0.802
97 1616.67 1200.00 54 414 89 0.425 2000.000 0.000 0.425 3000.000 0.000 0.802
98 1633.34 1200.00 64 413 103 0.425 2000.000 0.000 0.425 3000.000 0.000 0.802
99 1650.00 1200.00 67 367 81 0.425 2000.000 0.000 0.425 3000.000 0.000 0.802
100 1666.67 1200.00 51 366 70 0.425 2000.000 0.000 0.425 3000.000 0.000 0.802
101 1683.34 1200.00 60 350 71 0.425 2000.000 0.000 0.425 3000.000 0.000 0.802
102 1700.00 1200.00 45 334 58 0.425 2000.000 0.000 0.425 3000.000 0.000 0.802
103 1716.67 1200.00 40 334 66 0.425 2000.000 0.000 0.425 3000.000 0.000 0.802
104 1733.34 1200.00 34 383 69 0.425 2000.000 0.000 0.425 3000.000 0.000 0.802
105 1750.00 1200.00 36 391 75 0.425 2000.000 0.000 0.425 3000.000 0.000 0.802
106 1766.67 1200.00 33 361 84 0.425 2000.000 0.000 0.425 3000.000 0.000 0.802
107 1783.34 1200.00 40 391 109 0.425 2000.000 0.000 0.425 3000.000 0.000 0.802
108 1800.00 1200.00 39 401 113 0.425 2000.000 0.000 0.425 3000.000 0.000 0.802
109 1816.67 1200.00 40 397 93 0.425 2000.000 0.000 0.425 3000.000 0.000 0.802
110 1833.34 1200.00 47 419 109 0.425 2000.000 0.000 0.425 3000.000 0.000 0.802
111 1850.00 1200.00 59 445 143 0.425 2000.000 0.000 0.425 3000.000 0.000 0.802
112 1866.67 1200.00 38 448 165 0.425 2000.000 0.000 0.425 3000.000 0.000 0.802
113 1883.34 1200.00 39 445 136 0.425 2000.000 0.000 0.425 3000.000 0.000 0.802
114 1900.00 1200.00 41 484 132 0.425 2000.000 0.000 0.425 3000.000 0.000 0.802
115 1916.67 1200.00 52 453 136 0.425 2000.000 0.000 0.425 3000.000 0.000 0.802
116 1933.34 1200.00 36 449 130 0.425 2000.000 0.000 0.425 3000.000 0.000 0.802
117 1950.00 1200.00 40 461 129 0.425 2000.000 0.000 0.425 3000.000 0.000 0.802
118 1966.67 1200.00 46 459 116 0.425 2000.000 0.000 0.425 3000.000 0.000 0.802
119 1983.34 1200.00 34 410 106 0.425 2000.000 0.000 0.425 3000.000 0.000 0.802
