# BinNR microsec tot-time (s)  O-Beam H-beam AUX Ampl1(V) f1(Hz) phase1(deg) Ampl1(V) f1(Hz) phase1(deg) chi(pos)
0 0.00 1200.00 79 249 226 0.425 2000.000 0.000 0.425 3000.000 0.000 -0.659
1 16.67 1200.00 83 237 224 0.425 2000.000 0.000 0.425 3000.000 0.000 -0.659
2 33.33 1200.00 82 218 236 0.425 2000.000 0.000 0.425 3000.000 0.000 -0.659
3 50.00 1200.00 79 228 239 0.425 2000.000 0.000 0.425 3000.000 0.000 -0.659
4 66.67 1200.00 73 217 256 0.425 2000.000 0.000 0.425 3000.000 0.000 -0.659
5 83.33 1200.00 93 252 236 0.425 2000.000 0.000 0.425 3000.000 0.000 -0.659
6 100.00 1200.00 73 215 223 0.425 2000.000 0.000 0.425 3000.000 0.000 -0.659
7 116.67 1200.00 68 232 229 0.425 2000.000 0.000 0.425 3000.000 0.000 -0.659
8 133.33 1200.00 88 235 234 0.425 2000.000 0.000 0.425 3000.000 0.000 -0.659
9 150.00 1200.00 82 236 221 0.425 2000.000 0.000 0.425 3000.000 0.000 -0.659
10 166.67 1200.00 71 219 235 0.425 2000.000 0.000 0.425 3000.000 0.000 -0.659
11 183.33 1200.00 74 231 218 0.425 2000.000 0.000 0.425 3000.000 0.000 -0.659
12 200.00 1200.00 88 195 237 0.425 2000.000 0.000 0.425 3000.000 0.000 -0.659
13 216.67 1200.00 93 250 224 0.425 2000.000 0.000 0.425 3000.000 0.000 -0.659
14 233.33 1200.00 74 211 219 0.425 2000.000 0.000 0.425 3000.000 0.000 -0.659
15 250.00 1200.00 77 220 216 0.425 2000.000 0.000 0.425 3000.000 0.000 -0.659
16 266.67 1200.00 81 208 229 0.425 2000.000 0.000 0.425 3000.000 0.000 -0.659
17 283.33 1200.00 80 208 227 0.425 2000.000 0.000 0.425 3000.000 0.000 -0.659
18 300.00 1200.00 79 246 210 0.425 2000.000 0.000 0.425 3000.000 0.000 -0.659
19 316.67 1200.00 95 207 217 0.425 2000.000 0.000 0.425 3000.000 0.000 -0.659
20 333.33 1200.00 88 213 208 0.425 2000.000 0.000 0.425 3000.000 0.000 -0.659
21 350.00 1200.00 82 227 210 0.425 2000.000 0.000 0.425 3000.000 0.000 -0.659
22 366.67 1200.00 81 235 238 0.425 2000.000 0.000 0.425 3000.000 0.000 -0.659
23 383.33 1200.00 74 218 226 0.425 2000.000 0.000 0.425 3000.000 0.000 -0.659
24 400.00 1200.00 85 226 231 0.425 2000.000 0.000 0.425 3000.000 0.000 -0.659
25 416.67 1200.00 90 233 230 0.425 2000.000 0.000 0.425 3000.000 0.000 -0.659
26 433.33 1200.00 98 229 230 0.425 2000.000 0.000 0.425 3000.000 0.000 -0.659
27 450.00 1200.00 79 232 221 0.425 2000.000 0.000 0.425 3000.000 0.000 -0.659
28 466.67 1200.00 84 214 240 0.425 2000.000 0.000 0.425 3000.000 0.000 -0.659
29 483.33 1200.00 96 226 238 0.425 2000.000 0.000 0.425 3000.000 0.000 -0.659
30 500.00 1200.00 86 211 214 0.425 2000.000 0.000 0.425 3000.000 0.000 -0.659
31 516.67 1200.00 65 244 245 0.425 2000.000 0.000 0.425 3000.000 0.000 -0.659
32 533.33 1200.00 79 213 226 0.425 2000.000 0.000 0.425 3000.000 0.000 -0.659
33 550.00 1200.00 82 261 220 0.425 2000.000 0.000 0.425 3000.000 0.000 -0.659
34 566.67 1200.00 74 243 223 0.425 2000.000 0.000 0.425 3000.000 0.000 -0.659
35 583.33 1200.00 95 236 227 0.425 2000.000 0.000 0.425 3000.000 0.000 -0.659
36 600.00 1200.00 88 216 227 0.425 2000.000 0.000 0.425 3000.000 0.000 -0.659
37 616.67 1200.00 68 220 214 0.425 2000.000 0.000 0.425 3000.000 0.000 -0.659
38 633.33 1200.00 96 214 213 0.425 2000.000 0.000 0.425 3000.000 0.000 -0.659
39 650.00 1200.00 90 221 240 0.425 2000.000 0.000 0.425 3000.000 0.000 -0.659
40 666.67 1200.00 86 252 239 0.425 2000.000 0.000 0.425 3000.000 0.000 -0.659
41 683.33 1200.00 89 207 227 0.425 2000.000 0.000 0.425 3000.000 0.000 -0.659
42 700.00 1200.00 92 271 202 0.425 2000.000 0.000 0.425 3000.000 0.000 -0.659
43 716.67 1200.00 93 210 225 0.425 2000.000 0.000 0.425 3000.000 0.000 -0.659
44 733.33 1200.00 85 238 225 0.425 2000.000 0.000 0.425 3000.000 0.000 -0.659
45 750.00 1200.00 93 233 221 0.425 2000.000 0.000 0.425 3000.000 0.000 -0.659
46 766.67 1200.00 71 237 238 0.425 2000.000 0.000 0.425 3000.000 0.000 -0.659
47 783.33 1200.00 108 236 250 0.425 2000.000 0.000 0.425 3000.000 0.000 -0.659
48 800.00 1200.00 81 237 193 0.425 2000.000 0.000 0.425 3000.000 0.000 -0.659
49 816.67 1200.00 79 229 216 0.425 2000.000 0.000 0.425 3000.000 0.000 -0.659
50 833.34 1200.00 69 230 230 0.425 2000.000 0.000 0.425 3000.000 0.000 -0.659
51 850.00 1200.00 61 205 208 0.425 2000.000 0.000 0.425 3000.000 0.000 -0.659
52 866.67 1200.00 86 210 254 0.425 2000.000 0.000 0.425 3000.000 0.000 -0.659
53 883.34 1200.00 82 220 230 0.425 2000.000 0.000 0.425 3000.000 0.000 -0.659
54 900.00 1200.00 79 229 221 0.425 2000.000 0.000 0.425 3000.000 0.000 -0.659
55 916.67 1200.00 78 234 250 0.425 2000.000 0.000 0.425 3000.000 0.000 -0.659
56 933.34 1200.00 86 246 235 0.425 2000.000 0.000 0.425 3000.000 0.000 -0.659
57 950.00 1200.00 76 219 220 0.425 2000.000 0.000 0.425 3000.000 0.000 -0.659
58 966.67 1200.00 86 204 257 0.425 2000.000 0.000 0.425 3000.000 0.000 -0.659
59 983.34 1200.00 82 198 218 0.425 2000.000 0.000 0.425 3000.000 0.000 -0.659
60 1000.00 1200.00 77 198 209 0.425 2000.000 0.000 0.425 3000.000 0.000 -0.659
61 1016.67 1200.00 79 204 247 0.425 2000.000 0.000 0.425 3000.000 0.000 -0.659
62 1033.34 1200.00 87 235 208 0.425 2000.000 0.000 0.425 3000.000 0.000 -0.659
63 1050.00 1200.00 85 224 244 0.425 2000.000 0.000 0.425 3000.000 0.000 -0.659
64 1066.67 1200.00 81 246 239 0.425 2000.000 0.000 0.425 3000.000 0.000 -0.659
65 1083.34 1200.00 97 261 233 0.425 2000.000 0.000 0.425 3000.000 0.000 -0.659
66 1100.00 1200.00 89 249 218 0.425 2000.000 0.000 0.425 3000.000 0.000 -0.659
67 1116.67 1200.00 66 266 222 0.425 2000.000 0.000 0.425 3000.000 0.000 -0.659
68 1133.34 1200.00 81 236 247 0.425 2000.000 0.000 0.425 3000.000 0.000 -0.659
69 1150.00 1200.00 104 214 217 0.425 2000.000 0.000 0.425 3000.000 0.000 -0.659
70 1166.67 1200.00 71 214 245 0.425 2000.000 0.000 0.425 3000.000 0.000 -0.659
71 1183.34 1200.00 72 197 202 0.425 2000.000 0.000 0.425 3000.000 0.000 -0.659
72 1200.00 1200.00 88 240 219 0.425 2000.000 0.000 0.425 3000.000 0.000 -0.659
73 1216.67 1200.00 85 206 247 0.425 2000.000 0.000 0.425 3000.000 0.000 -0.659
74 1233.34 1200.00 88 233 251 0.425 2000.000 0.000 0.425 3000.000 0.000 -0.659
75 1250.00 1200.00 74 192 222 0.425 2000.000 0.000 0.425 3000.000 0.000 -0.659
76 1266.67 1200.00 90 192 231 0.425 2000.000 0.000 0.425 3000.000 0.000 -0.659
77 1283.34 1200.00 78 242 203 0.425 2000.000 0.000 0.425 3000.000 0.000 -0.659
78 1300.00 1200.00 82 228 247 0.425 2000.000 0.000 0.425 3000.000 0.000 -0.659
79 1316.67 1200.00 83 193 221 0.425 2000.000 0.000 0.425 3000.000 0.000 -0.659
80 1333.34 1200.00 81 229 233 0.425 2000.000 0.000 0.425 3000.000 0.000 -0.659
81 1350.00 1200.00 75 234 198 0.425 2000.000 0.000 0.425 3000.000 0.000 -0.659
82 1366.67 1200.00 99 254 210 0.425 2000.000 0.000 0.425 3000.000 0.000 -0.659
83 1383.34 1200.00 72 239 253 0.425 2000.000 0.000 0.425 3000.000 0.000 -0.659
84 1400.00 1200.00 87 237 236 0.425 2000.000 0.000 0.425 3000.000 0.000 -0.659
85 1416.67 1200.00 84 197 228 0.425 2000.000 0.000 0.425 3000.000 0.000 -0.659
86 1433.34 1200.00 94 218 251 0.425 2000.000 0.000 0.425 3000.000 0.000 -0.659
87 1450.00 1200.00 82 230 209 0.425 2000.000 0.000 0.425 3000.000 0.000 -0.659
88 1466.67 1200.00 74 213 233 0.425 2000.000 0.000 0.425 3000.000 0.000 -0.659
89 1483.34 1200.00 95 240 237 0.425 2000.000 0.000 0.425 3000.000 0.000 -0.659
90 1500.00 1200.00 86 223 245 0.425 2000.000 0.000 0.425 3000.000 0.000 -0.659
91 1516.67 1200.00 63 218 234 0.425 2000.000 0.000 0.425 3000.000 0.000 -0.659
92 1533.34 1200.00 97 241 220 0.425 2000.000 0.000 0.425 3000.000 0.000 -0.659
93 1550.00 1200.00 83 208 250 0.425 2000.000 0.000 0.425 3000.000 0.000 -0.659
94 1566.67 1200.00 83 232 244 0.425 2000.000 0.000 0.425 3000.000 0.000 -0.659
95 1583.34 1200.00 96 223 234 0.425 2000.000 0.000 0.425 3000.000 0.000 -0.659
96 1600.00 1200.00 89 224 203 0.425 2000.000 0.000 0.425 3000.000 0.000 -0.659
97 1616.67 1200.00 79 248 236 0.425 2000.000 0.000 0.425 3000.000 0.000 -0.659
98 1633.34 1200.00 88 229 236 0.425 2000.000 0.000 0.425 3000.000 0.000 -0.659
99 1650.00 1200.00 68 218 223 0.425 2000.000 0.000 0.425 3000.000 0.000 -0.659
100 1666.67 1200.00 82 217 224 0.425 2000.000 0.000 0.425 3000.000 0.000 -0.659
101 1683.34 1200.00 76 234 208 0.425 2000.000 0.000 0.425 3000.000 0.000 -0.659
102 1700.00 1200.00 88 231 220 0.425 2000.000 0.000 0.425 3000.000 0.000 -0.659
103 1716.67 1200.00 79 250 215 0.425 2000.000 0.000 0.425 3000.000 0.000 -0.659
104 1733.34 1200.00 94 223 243 0.425 2000.000 0.000 0.425 3000.000 0.000 -0.659
105 1750.00 1200.00 84 227 222 0.425 2000.000 0.000 0.425 3000.000 0.000 -0.659
106 1766.67 1200.00 89 209 258 0.425 2000.000 0.000 0.425 3000.000 0.000 -0.659
107 1783.34 1200.00 89 193 217 0.425 2000.000 0.000 0.425 3000.000 0.000 -0.659
108 1800.00 1200.00 76 201 243 0.425 2000.000 0.000 0.425 3000.000 0.000 -0.659
109 1816.67 1200.00 80 238 238 0.425 2000.000 0.000 0.425 3000.000 0.000 -0.659
110 1833.34 1200.00 85 228 248 0.425 2000.000 0.000 0.425 3000.000 0.000 -0.659
111 1850.00 1200.00 74 198 218 0.425 2000.000 0.000 0.425 3000.000 0.000 -0.659
112 1866.67 1200.00 70 248 222 0.425 2000.000 0.000 0.425 3000.000 0.000 -0.659
113 1883.34 1200.00 72 253 243 0.425 2000.000 0.000 0.425 3000.000 0.000 -0.659
114 1900.00 1200.00 67 233 225 0.425 2000.000 0.000 0.425 3000.000 0.000 -0.659
115 1916.67 1200.00 84 216 236 0.425 2000.000 0.000 0.425 3000.000 0.000 -0.659
116 1933.34 1200.00 79 234 248 0.425 2000.000 0.000 0.425 3000.000 0.000 -0.659
117 1950.00 1200.00 99 245 227 0.425 2000.000 0.000 0.425 3000.000 0.000 -0.659
118 1966.67 1200.00 97 204 225 0.425 2000.000 0.000 0.425 3000.000 0.000 -0.659
119 1983.34 1200.00 87 226 233 0.425 2000.000 0.000 0.425 3000.000 0.000 -0.659
