# BinNR microsec tot-time (s)  O-Beam H-beam AUX Ampl(V) f(Hz) phase(deg) chi(pos)
0 0.00 1200.00 539 531 2 5.313 2000.000 0.000 -1.208
1 25.00 1200.00 533 571 4 5.313 2000.000 0.000 -1.208
2 50.00 1200.00 478 688 3 5.313 2000.000 0.000 -1.208
3 75.00 1200.00 506 838 3 5.313 2000.000 0.000 -1.208
4 100.00 1200.00 538 962 2 5.313 2000.000 0.000 -1.208
5 125.00 1200.00 577 1017 2 5.313 2000.000 0.000 -1.208
6 150.00 1200.00 531 975 3 5.313 2000.000 0.000 -1.208
7 175.00 1200.00 366 968 4 5.313 2000.000 0.000 -1.208
8 200.00 1200.00 202 1022 3 5.313 2000.000 0.000 -1.208
9 225.00 1200.00 147 979 3 5.313 2000.000 0.000 -1.208
10 250.00 1200.00 152 961 1 5.313 2000.000 0.000 -1.208
11 275.00 1200.00 148 903 4 5.313 2000.000 0.000 -1.208
12 300.00 1200.00 200 844 4 5.313 2000.000 0.000 -1.208
13 325.00 1200.00 172 658 4 5.313 2000.000 0.000 -1.208
14 350.00 1200.00 139 585 5 5.313 2000.000 0.000 -1.208
15 375.00 1200.00 145 504 2 5.313 2000.000 0.000 -1.208
16 400.00 1200.00 209 588 2 5.313 2000.000 0.000 -1.208
17 425.00 1200.00 361 622 2 5.313 2000.000 0.000 -1.208
18 450.00 1200.00 524 663 1 5.313 2000.000 0.000 -1.208
19 475.00 1200.00 578 587 4 5.313 2000.000 0.000 -1.208
20 500.00 1200.00 552 514 6 5.313 2000.000 0.000 -1.208
21 525.00 1200.00 539 522 3 5.313 2000.000 0.000 -1.208
22 550.00 1200.00 509 674 1 5.313 2000.000 0.000 -1.208
23 575.00 1200.00 540 849 5 5.313 2000.000 0.000 -1.208
24 600.00 1200.00 594 947 5 5.313 2000.000 0.000 -1.208
25 625.00 1200.00 610 1030 3 5.313 2000.000 0.000 -1.208
26 650.00 1200.00 583 951 0 5.313 2000.000 0.000 -1.208
27 675.00 1200.00 376 907 3 5.313 2000.000 0.000 -1.208
28 700.00 1200.00 257 947 6 5.313 2000.000 0.000 -1.208
29 725.00 1200.00 176 935 6 5.313 2000.000 0.000 -1.208
30 750.00 1200.00 135 1035 0 5.313 2000.000 0.000 -1.208
31 775.00 1200.00 169 937 1 5.313 2000.000 0.000 -1.208
32 800.00 1200.00 198 817 2 5.313 2000.000 0.000 -1.208
33 825.00 1200.00 172 680 2 5.313 2000.000 0.000 -1.208
34 850.00 1200.00 166 556 1 5.313 2000.000 0.000 -1.208
35 875.00 1200.00 148 579 2 5.313 2000.000 0.000 -1.208
36 900.00 1200.00 192 599 0 5.313 2000.000 0.000 -1.208
37 925.00 1200.00 378 667 4 5.313 2000.000 0.000 -1.208
38 950.00 1200.00 502 615 6 5.313 2000.000 0.000 -1.208
39 975.00 1200.00 595 563 4 5.313 2000.000 0.000 -1.208
