# BinNR microsec tot-time (s)  O-Beam AUX Ampl_1(V) f_1(Hz) phase_1(deg) Ampl_2(V) f_2(Hz) phase_2(deg) chi(pos)
0 0.00 1500.05 444 1145 1.520 10000.000 0.000 0.000 0.000 0.000 -1.011
1 3.00 1500.05 881 2318 1.520 10000.000 0.000 0.000 0.000 0.000 -1.011
2 6.00 1500.05 921 2403 1.520 10000.000 0.000 0.000 0.000 0.000 -1.011
3 9.00 1500.05 883 2258 1.520 10000.000 0.000 0.000 0.000 0.000 -1.011
4 12.00 1500.05 889 2349 1.520 10000.000 0.000 0.000 0.000 0.000 -1.011
5 15.00 1500.05 847 2329 1.520 10000.000 0.000 0.000 0.000 0.000 -1.011
6 18.00 1500.05 928 2361 1.520 10000.000 0.000 0.000 0.000 0.000 -1.011
7 21.00 1500.05 871 2360 1.520 10000.000 0.000 0.000 0.000 0.000 -1.011
8 24.00 1500.05 845 2328 1.520 10000.000 0.000 0.000 0.000 0.000 -1.011
9 27.00 1500.05 838 2296 1.520 10000.000 0.000 0.000 0.000 0.000 -1.011
10 30.00 1500.05 911 2315 1.520 10000.000 0.000 0.000 0.000 0.000 -1.011
11 33.00 1500.05 866 2258 1.520 10000.000 0.000 0.000 0.000 0.000 -1.011
12 36.00 1500.05 879 2396 1.520 10000.000 0.000 0.000 0.000 0.000 -1.011
13 39.00 1500.05 816 2251 1.520 10000.000 0.000 0.000 0.000 0.000 -1.011
14 42.00 1500.05 896 2274 1.520 10000.000 0.000 0.000 0.000 0.000 -1.011
15 45.00 1500.05 876 2303 1.520 10000.000 0.000 0.000 0.000 0.000 -1.011
16 48.00 1500.05 927 2282 1.520 10000.000 0.000 0.000 0.000 0.000 -1.011
17 51.00 1500.05 875 2458 1.520 10000.000 0.000 0.000 0.000 0.000 -1.011
18 54.00 1500.05 907 2420 1.520 10000.000 0.000 0.000 0.000 0.000 -1.011
19 57.00 1500.05 874 2288 1.520 10000.000 0.000 0.000 0.000 0.000 -1.011
20 60.00 1500.05 918 2464 1.520 10000.000 0.000 0.000 0.000 0.000 -1.011
21 63.00 1500.05 865 2384 1.520 10000.000 0.000 0.000 0.000 0.000 -1.011
22 66.00 1500.05 841 2374 1.520 10000.000 0.000 0.000 0.000 0.000 -1.011
23 69.00 1500.05 944 2316 1.520 10000.000 0.000 0.000 0.000 0.000 -1.011
24 72.00 1500.05 868 2400 1.520 10000.000 0.000 0.000 0.000 0.000 -1.011
25 75.00 1500.05 856 2332 1.520 10000.000 0.000 0.000 0.000 0.000 -1.011
26 78.00 1500.05 921 2288 1.520 10000.000 0.000 0.000 0.000 0.000 -1.011
27 81.00 1500.05 849 2312 1.520 10000.000 0.000 0.000 0.000 0.000 -1.011
28 84.00 1500.05 884 2325 1.520 10000.000 0.000 0.000 0.000 0.000 -1.011
29 87.00 1500.05 900 2406 1.520 10000.000 0.000 0.000 0.000 0.000 -1.011
30 90.00 1500.05 935 2387 1.520 10000.000 0.000 0.000 0.000 0.000 -1.011
31 93.00 1500.05 884 2280 1.520 10000.000 0.000 0.000 0.000 0.000 -1.011
32 96.00 1500.05 920 2282 1.520 10000.000 0.000 0.000 0.000 0.000 -1.011
33 99.00 1500.05 869 2437 1.520 10000.000 0.000 0.000 0.000 0.000 -1.011
34 102.00 1500.05 881 2270 1.520 10000.000 0.000 0.000 0.000 0.000 -1.011
35 105.00 1500.05 944 2339 1.520 10000.000 0.000 0.000 0.000 0.000 -1.011
36 108.00 1500.05 927 2301 1.520 10000.000 0.000 0.000 0.000 0.000 -1.011
37 111.00 1500.05 942 2312 1.520 10000.000 0.000 0.000 0.000 0.000 -1.011
38 114.00 1500.05 903 2431 1.520 10000.000 0.000 0.000 0.000 0.000 -1.011
39 117.00 1500.05 884 2268 1.520 10000.000 0.000 0.000 0.000 0.000 -1.011
40 120.00 1500.05 894 2367 1.520 10000.000 0.000 0.000 0.000 0.000 -1.011
41 123.00 1500.05 911 2367 1.520 10000.000 0.000 0.000 0.000 0.000 -1.011
42 126.00 1500.05 878 2338 1.520 10000.000 0.000 0.000 0.000 0.000 -1.011
43 129.00 1500.05 852 2230 1.520 10000.000 0.000 0.000 0.000 0.000 -1.011
44 132.00 1500.05 912 2301 1.520 10000.000 0.000 0.000 0.000 0.000 -1.011
45 135.00 1500.05 886 2320 1.520 10000.000 0.000 0.000 0.000 0.000 -1.011
46 138.00 1500.05 952 2299 1.520 10000.000 0.000 0.000 0.000 0.000 -1.011
47 141.00 1500.05 846 2316 1.520 10000.000 0.000 0.000 0.000 0.000 -1.011
48 144.00 1500.05 912 2461 1.520 10000.000 0.000 0.000 0.000 0.000 -1.011
49 147.00 1500.05 919 2417 1.520 10000.000 0.000 0.000 0.000 0.000 -1.011
50 150.00 1500.05 884 2366 1.520 10000.000 0.000 0.000 0.000 0.000 -1.011
51 153.00 1500.05 865 2248 1.520 10000.000 0.000 0.000 0.000 0.000 -1.011
52 156.00 1500.05 905 2356 1.520 10000.000 0.000 0.000 0.000 0.000 -1.011
53 159.00 1500.05 829 2318 1.520 10000.000 0.000 0.000 0.000 0.000 -1.011
54 162.00 1500.05 926 2384 1.520 10000.000 0.000 0.000 0.000 0.000 -1.011
55 165.00 1500.05 881 2355 1.520 10000.000 0.000 0.000 0.000 0.000 -1.011
56 168.00 1500.05 898 2431 1.520 10000.000 0.000 0.000 0.000 0.000 -1.011
57 171.00 1500.05 892 2260 1.520 10000.000 0.000 0.000 0.000 0.000 -1.011
58 174.00 1500.05 819 2354 1.520 10000.000 0.000 0.000 0.000 0.000 -1.011
59 177.00 1500.05 963 2325 1.520 10000.000 0.000 0.000 0.000 0.000 -1.011
60 180.00 1500.05 862 2272 1.520 10000.000 0.000 0.000 0.000 0.000 -1.011
61 183.00 1500.05 905 2308 1.520 10000.000 0.000 0.000 0.000 0.000 -1.011
62 186.00 1500.05 927 2347 1.520 10000.000 0.000 0.000 0.000 0.000 -1.011
63 189.00 1500.05 909 2279 1.520 10000.000 0.000 0.000 0.000 0.000 -1.011
64 192.00 1500.05 870 2323 1.520 10000.000 0.000 0.000 0.000 0.000 -1.011
65 195.00 1500.05 875 2284 1.520 10000.000 0.000 0.000 0.000 0.000 -1.011
66 198.00 1500.05 909 2291 1.520 10000.000 0.000 0.000 0.000 0.000 -1.011
67 201.00 1500.05 871 2437 1.520 10000.000 0.000 0.000 0.000 0.000 -1.011
68 204.00 1500.05 903 2257 1.520 10000.000 0.000 0.000 0.000 0.000 -1.011
69 207.00 1500.05 866 2342 1.520 10000.000 0.000 0.000 0.000 0.000 -1.011
70 210.00 1500.05 881 2405 1.520 10000.000 0.000 0.000 0.000 0.000 -1.011
71 213.00 1500.05 909 2277 1.520 10000.000 0.000 0.000 0.000 0.000 -1.011
72 216.00 1500.05 959 2364 1.520 10000.000 0.000 0.000 0.000 0.000 -1.011
73 219.00 1500.05 830 2266 1.520 10000.000 0.000 0.000 0.000 0.000 -1.011
74 222.00 1500.05 860 2400 1.520 10000.000 0.000 0.000 0.000 0.000 -1.011
75 225.00 1500.05 876 2274 1.520 10000.000 0.000 0.000 0.000 0.000 -1.011
76 228.00 1500.05 885 2410 1.520 10000.000 0.000 0.000 0.000 0.000 -1.011
77 231.00 1500.05 867 2275 1.520 10000.000 0.000 0.000 0.000 0.000 -1.011
78 234.00 1500.05 948 2342 1.520 10000.000 0.000 0.000 0.000 0.000 -1.011
79 237.00 1500.05 901 2336 1.520 10000.000 0.000 0.000 0.000 0.000 -1.011
80 240.00 1500.05 958 2323 1.520 10000.000 0.000 0.000 0.000 0.000 -1.011
81 243.00 1500.05 900 2286 1.520 10000.000 0.000 0.000 0.000 0.000 -1.011
82 246.00 1500.05 932 2346 1.520 10000.000 0.000 0.000 0.000 0.000 -1.011
83 249.00 1500.05 822 2294 1.520 10000.000 0.000 0.000 0.000 0.000 -1.011
84 252.00 1500.05 911 2343 1.520 10000.000 0.000 0.000 0.000 0.000 -1.011
85 255.00 1500.05 912 2323 1.520 10000.000 0.000 0.000 0.000 0.000 -1.011
86 258.00 1500.05 922 2323 1.520 10000.000 0.000 0.000 0.000 0.000 -1.011
87 261.00 1500.05 865 2363 1.520 10000.000 0.000 0.000 0.000 0.000 -1.011
88 264.00 1500.05 910 2364 1.520 10000.000 0.000 0.000 0.000 0.000 -1.011
89 267.00 1500.05 895 2397 1.520 10000.000 0.000 0.000 0.000 0.000 -1.011
90 270.00 1500.05 841 2446 1.520 10000.000 0.000 0.000 0.000 0.000 -1.011
91 273.00 1500.05 917 2324 1.520 10000.000 0.000 0.000 0.000 0.000 -1.011
92 276.00 1500.05 904 2318 1.520 10000.000 0.000 0.000 0.000 0.000 -1.011
93 279.00 1500.05 887 2327 1.520 10000.000 0.000 0.000 0.000 0.000 -1.011
94 282.00 1500.05 890 2449 1.520 10000.000 0.000 0.000 0.000 0.000 -1.011
95 285.00 1500.05 907 2355 1.520 10000.000 0.000 0.000 0.000 0.000 -1.011
96 288.00 1500.05 911 2300 1.520 10000.000 0.000 0.000 0.000 0.000 -1.011
97 291.00 1500.05 914 2373 1.520 10000.000 0.000 0.000 0.000 0.000 -1.011
98 294.00 1500.05 887 2380 1.520 10000.000 0.000 0.000 0.000 0.000 -1.011
99 297.00 1500.05 897 2351 1.520 10000.000 0.000 0.000 0.000 0.000 -1.011
100 300.00 1500.05 943 2334 1.520 10000.000 0.000 0.000 0.000 0.000 -1.011
101 303.00 1500.05 878 2346 1.520 10000.000 0.000 0.000 0.000 0.000 -1.011
102 306.00 1500.05 883 2329 1.520 10000.000 0.000 0.000 0.000 0.000 -1.011
103 309.00 1500.05 899 2315 1.520 10000.000 0.000 0.000 0.000 0.000 -1.011
104 312.00 1500.05 864 2268 1.520 10000.000 0.000 0.000 0.000 0.000 -1.011
105 315.00 1500.05 929 2271 1.520 10000.000 0.000 0.000 0.000 0.000 -1.011
106 318.00 1500.05 902 2291 1.520 10000.000 0.000 0.000 0.000 0.000 -1.011
107 321.00 1500.05 831 2325 1.520 10000.000 0.000 0.000 0.000 0.000 -1.011
108 324.00 1500.05 943 2282 1.520 10000.000 0.000 0.000 0.000 0.000 -1.011
109 327.00 1500.05 932 2337 1.520 10000.000 0.000 0.000 0.000 0.000 -1.011
110 330.00 1500.05 899 2275 1.520 10000.000 0.000 0.000 0.000 0.000 -1.011
111 333.00 1500.05 892 2330 1.520 10000.000 0.000 0.000 0.000 0.000 -1.011
112 336.00 1500.05 950 2431 1.520 10000.000 0.000 0.000 0.000 0.000 -1.011
113 339.00 1500.05 893 2310 1.520 10000.000 0.000 0.000 0.000 0.000 -1.011
114 342.00 1500.05 921 2220 1.520 10000.000 0.000 0.000 0.000 0.000 -1.011
115 345.00 1500.05 867 2330 1.520 10000.000 0.000 0.000 0.000 0.000 -1.011
116 348.00 1500.05 962 2412 1.520 10000.000 0.000 0.000 0.000 0.000 -1.011
117 351.00 1500.05 886 2284 1.520 10000.000 0.000 0.000 0.000 0.000 -1.011
118 354.00 1500.05 876 2415 1.520 10000.000 0.000 0.000 0.000 0.000 -1.011
119 357.00 1500.05 897 2289 1.520 10000.000 0.000 0.000 0.000 0.000 -1.011
120 360.00 1500.05 918 2399 1.520 10000.000 0.000 0.000 0.000 0.000 -1.011
121 363.00 1500.05 873 2280 1.520 10000.000 0.000 0.000 0.000 0.000 -1.011
122 366.00 1500.05 938 2318 1.520 10000.000 0.000 0.000 0.000 0.000 -1.011
123 369.00 1500.05 909 2283 1.520 10000.000 0.000 0.000 0.000 0.000 -1.011
124 372.00 1500.05 918 2310 1.520 10000.000 0.000 0.000 0.000 0.000 -1.011
125 375.00 1500.05 873 2447 1.520 10000.000 0.000 0.000 0.000 0.000 -1.011
126 378.00 1500.05 924 2268 1.520 10000.000 0.000 0.000 0.000 0.000 -1.011
127 381.00 1500.05 845 2278 1.520 10000.000 0.000 0.000 0.000 0.000 -1.011
128 384.00 1500.05 950 2371 1.520 10000.000 0.000 0.000 0.000 0.000 -1.011
129 387.00 1500.05 882 2289 1.520 10000.000 0.000 0.000 0.000 0.000 -1.011
130 390.00 1500.05 935 2261 1.520 10000.000 0.000 0.000 0.000 0.000 -1.011
131 393.00 1500.05 922 2406 1.520 10000.000 0.000 0.000 0.000 0.000 -1.011
132 396.00 1500.05 931 2403 1.520 10000.000 0.000 0.000 0.000 0.000 -1.011
133 399.00 1500.05 870 2475 1.520 10000.000 0.000 0.000 0.000 0.000 -1.011
134 402.00 1500.05 910 2352 1.520 10000.000 0.000 0.000 0.000 0.000 -1.011
135 405.00 1500.05 904 2247 1.520 10000.000 0.000 0.000 0.000 0.000 -1.011
136 408.00 1500.05 893 2341 1.520 10000.000 0.000 0.000 0.000 0.000 -1.011
137 411.00 1500.05 863 2329 1.520 10000.000 0.000 0.000 0.000 0.000 -1.011
138 414.00 1500.05 914 2324 1.520 10000.000 0.000 0.000 0.000 0.000 -1.011
139 417.00 1500.05 836 2279 1.520 10000.000 0.000 0.000 0.000 0.000 -1.011
140 420.00 1500.05 867 2324 1.520 10000.000 0.000 0.000 0.000 0.000 -1.011
141 423.00 1500.05 893 2343 1.520 10000.000 0.000 0.000 0.000 0.000 -1.011
142 426.00 1500.05 901 2332 1.520 10000.000 0.000 0.000 0.000 0.000 -1.011
143 429.00 1500.05 843 2410 1.520 10000.000 0.000 0.000 0.000 0.000 -1.011
144 432.00 1500.05 854 2417 1.520 10000.000 0.000 0.000 0.000 0.000 -1.011
