# BinNR microsec tot-time (s)  O-Beam AUX Ampl_1(V) f_1(Hz) phase_1(deg) Ampl_2(V) f_2(Hz) phase_2(deg) chi(pos)
0 0.00 1500.05 423 1082 1.520 10000.000 0.000 0.000 0.000 0.000 0.659
1 3.00 1500.05 859 2291 1.520 10000.000 0.000 0.000 0.000 0.000 0.659
2 6.00 1500.05 885 2369 1.520 10000.000 0.000 0.000 0.000 0.000 0.659
3 9.00 1500.05 873 2324 1.520 10000.000 0.000 0.000 0.000 0.000 0.659
4 12.00 1500.05 869 2270 1.520 10000.000 0.000 0.000 0.000 0.000 0.659
5 15.00 1500.05 920 2190 1.520 10000.000 0.000 0.000 0.000 0.000 0.659
6 18.00 1500.05 857 2310 1.520 10000.000 0.000 0.000 0.000 0.000 0.659
7 21.00 1500.05 884 2286 1.520 10000.000 0.000 0.000 0.000 0.000 0.659
8 24.00 1500.05 923 2224 1.520 10000.000 0.000 0.000 0.000 0.000 0.659
9 27.00 1500.05 939 2260 1.520 10000.000 0.000 0.000 0.000 0.000 0.659
10 30.00 1500.05 852 2326 1.520 10000.000 0.000 0.000 0.000 0.000 0.659
11 33.00 1500.05 851 2249 1.520 10000.000 0.000 0.000 0.000 0.000 0.659
12 36.00 1500.05 875 2291 1.520 10000.000 0.000 0.000 0.000 0.000 0.659
13 39.00 1500.05 882 2312 1.520 10000.000 0.000 0.000 0.000 0.000 0.659
14 42.00 1500.05 872 2206 1.520 10000.000 0.000 0.000 0.000 0.000 0.659
15 45.00 1500.05 813 2242 1.520 10000.000 0.000 0.000 0.000 0.000 0.659
16 48.00 1500.05 916 2427 1.520 10000.000 0.000 0.000 0.000 0.000 0.659
17 51.00 1500.05 874 2264 1.520 10000.000 0.000 0.000 0.000 0.000 0.659
18 54.00 1500.05 922 2353 1.520 10000.000 0.000 0.000 0.000 0.000 0.659
19 57.00 1500.05 894 2247 1.520 10000.000 0.000 0.000 0.000 0.000 0.659
20 60.00 1500.05 902 2275 1.520 10000.000 0.000 0.000 0.000 0.000 0.659
21 63.00 1500.05 918 2299 1.520 10000.000 0.000 0.000 0.000 0.000 0.659
22 66.00 1500.05 904 2289 1.520 10000.000 0.000 0.000 0.000 0.000 0.659
23 69.00 1500.05 830 2252 1.520 10000.000 0.000 0.000 0.000 0.000 0.659
24 72.00 1500.05 880 2386 1.520 10000.000 0.000 0.000 0.000 0.000 0.659
25 75.00 1500.05 880 2253 1.520 10000.000 0.000 0.000 0.000 0.000 0.659
26 78.00 1500.05 898 2320 1.520 10000.000 0.000 0.000 0.000 0.000 0.659
27 81.00 1500.05 865 2250 1.520 10000.000 0.000 0.000 0.000 0.000 0.659
28 84.00 1500.05 893 2360 1.520 10000.000 0.000 0.000 0.000 0.000 0.659
29 87.00 1500.05 886 2209 1.520 10000.000 0.000 0.000 0.000 0.000 0.659
30 90.00 1500.05 914 2284 1.520 10000.000 0.000 0.000 0.000 0.000 0.659
31 93.00 1500.05 905 2216 1.520 10000.000 0.000 0.000 0.000 0.000 0.659
32 96.00 1500.05 872 2239 1.520 10000.000 0.000 0.000 0.000 0.000 0.659
33 99.00 1500.05 846 2304 1.520 10000.000 0.000 0.000 0.000 0.000 0.659
34 102.00 1500.05 909 2356 1.520 10000.000 0.000 0.000 0.000 0.000 0.659
35 105.00 1500.05 915 2215 1.520 10000.000 0.000 0.000 0.000 0.000 0.659
36 108.00 1500.05 844 2416 1.520 10000.000 0.000 0.000 0.000 0.000 0.659
37 111.00 1500.05 876 2322 1.520 10000.000 0.000 0.000 0.000 0.000 0.659
38 114.00 1500.05 909 2337 1.520 10000.000 0.000 0.000 0.000 0.000 0.659
39 117.00 1500.05 835 2342 1.520 10000.000 0.000 0.000 0.000 0.000 0.659
40 120.00 1500.05 889 2307 1.520 10000.000 0.000 0.000 0.000 0.000 0.659
41 123.00 1500.05 850 2277 1.520 10000.000 0.000 0.000 0.000 0.000 0.659
42 126.00 1500.05 865 2269 1.520 10000.000 0.000 0.000 0.000 0.000 0.659
43 129.00 1500.05 854 2319 1.520 10000.000 0.000 0.000 0.000 0.000 0.659
44 132.00 1500.05 915 2337 1.520 10000.000 0.000 0.000 0.000 0.000 0.659
45 135.00 1500.05 847 2272 1.520 10000.000 0.000 0.000 0.000 0.000 0.659
46 138.00 1500.05 865 2368 1.520 10000.000 0.000 0.000 0.000 0.000 0.659
47 141.00 1500.05 872 2230 1.520 10000.000 0.000 0.000 0.000 0.000 0.659
48 144.00 1500.05 912 2295 1.520 10000.000 0.000 0.000 0.000 0.000 0.659
49 147.00 1500.05 855 2283 1.520 10000.000 0.000 0.000 0.000 0.000 0.659
50 150.00 1500.05 871 2378 1.520 10000.000 0.000 0.000 0.000 0.000 0.659
51 153.00 1500.05 858 2265 1.520 10000.000 0.000 0.000 0.000 0.000 0.659
52 156.00 1500.05 888 2254 1.520 10000.000 0.000 0.000 0.000 0.000 0.659
53 159.00 1500.05 870 2311 1.520 10000.000 0.000 0.000 0.000 0.000 0.659
54 162.00 1500.05 925 2415 1.520 10000.000 0.000 0.000 0.000 0.000 0.659
55 165.00 1500.05 883 2264 1.520 10000.000 0.000 0.000 0.000 0.000 0.659
56 168.00 1500.05 893 2326 1.520 10000.000 0.000 0.000 0.000 0.000 0.659
57 171.00 1500.05 835 2258 1.520 10000.000 0.000 0.000 0.000 0.000 0.659
58 174.00 1500.05 868 2334 1.520 10000.000 0.000 0.000 0.000 0.000 0.659
59 177.00 1500.05 886 2218 1.520 10000.000 0.000 0.000 0.000 0.000 0.659
60 180.00 1500.05 884 2252 1.520 10000.000 0.000 0.000 0.000 0.000 0.659
61 183.00 1500.05 922 2234 1.520 10000.000 0.000 0.000 0.000 0.000 0.659
62 186.00 1500.05 920 2389 1.520 10000.000 0.000 0.000 0.000 0.000 0.659
63 189.00 1500.05 885 2297 1.520 10000.000 0.000 0.000 0.000 0.000 0.659
64 192.00 1500.05 880 2394 1.520 10000.000 0.000 0.000 0.000 0.000 0.659
65 195.00 1500.05 865 2304 1.520 10000.000 0.000 0.000 0.000 0.000 0.659
66 198.00 1500.05 933 2322 1.520 10000.000 0.000 0.000 0.000 0.000 0.659
67 201.00 1500.05 875 2376 1.520 10000.000 0.000 0.000 0.000 0.000 0.659
68 204.00 1500.05 902 2338 1.520 10000.000 0.000 0.000 0.000 0.000 0.659
69 207.00 1500.05 897 2178 1.520 10000.000 0.000 0.000 0.000 0.000 0.659
70 210.00 1500.05 896 2277 1.520 10000.000 0.000 0.000 0.000 0.000 0.659
71 213.00 1500.05 864 2286 1.520 10000.000 0.000 0.000 0.000 0.000 0.659
72 216.00 1500.05 903 2299 1.520 10000.000 0.000 0.000 0.000 0.000 0.659
73 219.00 1500.05 899 2284 1.520 10000.000 0.000 0.000 0.000 0.000 0.659
74 222.00 1500.05 889 2310 1.520 10000.000 0.000 0.000 0.000 0.000 0.659
75 225.00 1500.05 888 2290 1.520 10000.000 0.000 0.000 0.000 0.000 0.659
76 228.00 1500.05 868 2346 1.520 10000.000 0.000 0.000 0.000 0.000 0.659
77 231.00 1500.05 894 2275 1.520 10000.000 0.000 0.000 0.000 0.000 0.659
78 234.00 1500.05 905 2294 1.520 10000.000 0.000 0.000 0.000 0.000 0.659
79 237.00 1500.05 864 2249 1.520 10000.000 0.000 0.000 0.000 0.000 0.659
80 240.00 1500.05 831 2314 1.520 10000.000 0.000 0.000 0.000 0.000 0.659
81 243.00 1500.05 894 2249 1.520 10000.000 0.000 0.000 0.000 0.000 0.659
82 246.00 1500.05 924 2347 1.520 10000.000 0.000 0.000 0.000 0.000 0.659
83 249.00 1500.05 879 2406 1.520 10000.000 0.000 0.000 0.000 0.000 0.659
84 252.00 1500.05 917 2270 1.520 10000.000 0.000 0.000 0.000 0.000 0.659
85 255.00 1500.05 883 2273 1.520 10000.000 0.000 0.000 0.000 0.000 0.659
86 258.00 1500.05 907 2391 1.520 10000.000 0.000 0.000 0.000 0.000 0.659
87 261.00 1500.05 830 2235 1.520 10000.000 0.000 0.000 0.000 0.000 0.659
88 264.00 1500.05 926 2303 1.520 10000.000 0.000 0.000 0.000 0.000 0.659
89 267.00 1500.05 901 2418 1.520 10000.000 0.000 0.000 0.000 0.000 0.659
90 270.00 1500.05 881 2312 1.520 10000.000 0.000 0.000 0.000 0.000 0.659
91 273.00 1500.05 902 2187 1.520 10000.000 0.000 0.000 0.000 0.000 0.659
92 276.00 1500.05 894 2336 1.520 10000.000 0.000 0.000 0.000 0.000 0.659
93 279.00 1500.05 856 2278 1.520 10000.000 0.000 0.000 0.000 0.000 0.659
94 282.00 1500.05 810 2278 1.520 10000.000 0.000 0.000 0.000 0.000 0.659
95 285.00 1500.05 850 2328 1.520 10000.000 0.000 0.000 0.000 0.000 0.659
96 288.00 1500.05 893 2276 1.520 10000.000 0.000 0.000 0.000 0.000 0.659
97 291.00 1500.05 860 2271 1.520 10000.000 0.000 0.000 0.000 0.000 0.659
98 294.00 1500.05 910 2317 1.520 10000.000 0.000 0.000 0.000 0.000 0.659
99 297.00 1500.05 866 2257 1.520 10000.000 0.000 0.000 0.000 0.000 0.659
100 300.00 1500.05 866 2246 1.520 10000.000 0.000 0.000 0.000 0.000 0.659
101 303.00 1500.05 805 2345 1.520 10000.000 0.000 0.000 0.000 0.000 0.659
102 306.00 1500.05 887 2257 1.520 10000.000 0.000 0.000 0.000 0.000 0.659
103 309.00 1500.05 800 2299 1.520 10000.000 0.000 0.000 0.000 0.000 0.659
104 312.00 1500.05 924 2291 1.520 10000.000 0.000 0.000 0.000 0.000 0.659
105 315.00 1500.05 848 2273 1.520 10000.000 0.000 0.000 0.000 0.000 0.659
106 318.00 1500.05 878 2385 1.520 10000.000 0.000 0.000 0.000 0.000 0.659
107 321.00 1500.05 915 2321 1.520 10000.000 0.000 0.000 0.000 0.000 0.659
108 324.00 1500.05 901 2251 1.520 10000.000 0.000 0.000 0.000 0.000 0.659
109 327.00 1500.05 898 2298 1.520 10000.000 0.000 0.000 0.000 0.000 0.659
110 330.00 1500.05 905 2317 1.520 10000.000 0.000 0.000 0.000 0.000 0.659
111 333.00 1500.05 912 2334 1.520 10000.000 0.000 0.000 0.000 0.000 0.659
112 336.00 1500.05 924 2262 1.520 10000.000 0.000 0.000 0.000 0.000 0.659
113 339.00 1500.05 879 2242 1.520 10000.000 0.000 0.000 0.000 0.000 0.659
114 342.00 1500.05 890 2290 1.520 10000.000 0.000 0.000 0.000 0.000 0.659
115 345.00 1500.05 905 2254 1.520 10000.000 0.000 0.000 0.000 0.000 0.659
116 348.00 1500.05 891 2334 1.520 10000.000 0.000 0.000 0.000 0.000 0.659
117 351.00 1500.05 827 2267 1.520 10000.000 0.000 0.000 0.000 0.000 0.659
118 354.00 1500.05 884 2261 1.520 10000.000 0.000 0.000 0.000 0.000 0.659
119 357.00 1500.05 870 2317 1.520 10000.000 0.000 0.000 0.000 0.000 0.659
120 360.00 1500.05 898 2309 1.520 10000.000 0.000 0.000 0.000 0.000 0.659
121 363.00 1500.05 880 2387 1.520 10000.000 0.000 0.000 0.000 0.000 0.659
122 366.00 1500.05 928 2322 1.520 10000.000 0.000 0.000 0.000 0.000 0.659
123 369.00 1500.05 868 2219 1.520 10000.000 0.000 0.000 0.000 0.000 0.659
124 372.00 1500.05 870 2243 1.520 10000.000 0.000 0.000 0.000 0.000 0.659
125 375.00 1500.05 897 2194 1.520 10000.000 0.000 0.000 0.000 0.000 0.659
126 378.00 1500.05 846 2333 1.520 10000.000 0.000 0.000 0.000 0.000 0.659
127 381.00 1500.05 887 2281 1.520 10000.000 0.000 0.000 0.000 0.000 0.659
128 384.00 1500.05 897 2316 1.520 10000.000 0.000 0.000 0.000 0.000 0.659
129 387.00 1500.05 907 2245 1.520 10000.000 0.000 0.000 0.000 0.000 0.659
130 390.00 1500.05 887 2308 1.520 10000.000 0.000 0.000 0.000 0.000 0.659
131 393.00 1500.05 830 2238 1.520 10000.000 0.000 0.000 0.000 0.000 0.659
132 396.00 1500.05 909 2326 1.520 10000.000 0.000 0.000 0.000 0.000 0.659
133 399.00 1500.05 862 2281 1.520 10000.000 0.000 0.000 0.000 0.000 0.659
134 402.00 1500.05 873 2366 1.520 10000.000 0.000 0.000 0.000 0.000 0.659
135 405.00 1500.05 852 2291 1.520 10000.000 0.000 0.000 0.000 0.000 0.659
136 408.00 1500.05 900 2314 1.520 10000.000 0.000 0.000 0.000 0.000 0.659
137 411.00 1500.05 900 2336 1.520 10000.000 0.000 0.000 0.000 0.000 0.659
138 414.00 1500.05 901 2359 1.520 10000.000 0.000 0.000 0.000 0.000 0.659
139 417.00 1500.05 898 2255 1.520 10000.000 0.000 0.000 0.000 0.000 0.659
140 420.00 1500.05 966 2283 1.520 10000.000 0.000 0.000 0.000 0.000 0.659
141 423.00 1500.05 840 2238 1.520 10000.000 0.000 0.000 0.000 0.000 0.659
142 426.00 1500.05 961 2398 1.520 10000.000 0.000 0.000 0.000 0.000 0.659
143 429.00 1500.05 896 2223 1.520 10000.000 0.000 0.000 0.000 0.000 0.659
144 432.00 1500.05 876 2404 1.520 10000.000 0.000 0.000 0.000 0.000 0.659
