# BinNR microsec tot-time (s)  O-Beam AUX Ampl_1(V) f_1(Hz) phase_1(deg) Ampl_2(V) f_2(Hz) phase_2(deg) chi(pos)
0 0.00 1500.01 441 1184 1.520 10000.000 0.000 0.000 0.000 0.000 0.989
1 3.00 1500.01 934 2257 1.520 10000.000 0.000 0.000 0.000 0.000 0.989
2 6.00 1500.01 952 2277 1.520 10000.000 0.000 0.000 0.000 0.000 0.989
3 9.00 1500.01 882 2317 1.520 10000.000 0.000 0.000 0.000 0.000 0.989
4 12.00 1500.01 919 2319 1.520 10000.000 0.000 0.000 0.000 0.000 0.989
5 15.00 1500.01 862 2363 1.520 10000.000 0.000 0.000 0.000 0.000 0.989
6 18.00 1500.01 904 2222 1.520 10000.000 0.000 0.000 0.000 0.000 0.989
7 21.00 1500.01 893 2256 1.520 10000.000 0.000 0.000 0.000 0.000 0.989
8 24.00 1500.01 933 2372 1.520 10000.000 0.000 0.000 0.000 0.000 0.989
9 27.00 1500.01 926 2281 1.520 10000.000 0.000 0.000 0.000 0.000 0.989
10 30.00 1500.01 874 2261 1.520 10000.000 0.000 0.000 0.000 0.000 0.989
11 33.00 1500.01 967 2225 1.520 10000.000 0.000 0.000 0.000 0.000 0.989
12 36.00 1500.01 920 2318 1.520 10000.000 0.000 0.000 0.000 0.000 0.989
13 39.00 1500.01 899 2284 1.520 10000.000 0.000 0.000 0.000 0.000 0.989
14 42.00 1500.01 911 2401 1.520 10000.000 0.000 0.000 0.000 0.000 0.989
15 45.00 1500.01 907 2313 1.520 10000.000 0.000 0.000 0.000 0.000 0.989
16 48.00 1500.01 859 2332 1.520 10000.000 0.000 0.000 0.000 0.000 0.989
17 51.00 1500.01 878 2289 1.520 10000.000 0.000 0.000 0.000 0.000 0.989
18 54.00 1500.01 914 2311 1.520 10000.000 0.000 0.000 0.000 0.000 0.989
19 57.00 1500.01 911 2327 1.520 10000.000 0.000 0.000 0.000 0.000 0.989
20 60.00 1500.01 874 2375 1.520 10000.000 0.000 0.000 0.000 0.000 0.989
21 63.00 1500.01 881 2153 1.520 10000.000 0.000 0.000 0.000 0.000 0.989
22 66.00 1500.01 895 2276 1.520 10000.000 0.000 0.000 0.000 0.000 0.989
23 69.00 1500.01 909 2295 1.520 10000.000 0.000 0.000 0.000 0.000 0.989
24 72.00 1500.01 922 2322 1.520 10000.000 0.000 0.000 0.000 0.000 0.989
25 75.00 1500.01 828 2267 1.520 10000.000 0.000 0.000 0.000 0.000 0.989
26 78.00 1500.01 881 2329 1.520 10000.000 0.000 0.000 0.000 0.000 0.989
27 81.00 1500.01 904 2179 1.520 10000.000 0.000 0.000 0.000 0.000 0.989
28 84.00 1500.01 905 2246 1.520 10000.000 0.000 0.000 0.000 0.000 0.989
29 87.00 1500.01 853 2288 1.520 10000.000 0.000 0.000 0.000 0.000 0.989
30 90.00 1500.01 877 2346 1.520 10000.000 0.000 0.000 0.000 0.000 0.989
31 93.00 1500.01 830 2320 1.520 10000.000 0.000 0.000 0.000 0.000 0.989
32 96.00 1500.01 880 2314 1.520 10000.000 0.000 0.000 0.000 0.000 0.989
33 99.00 1500.01 911 2315 1.520 10000.000 0.000 0.000 0.000 0.000 0.989
34 102.00 1500.01 903 2285 1.520 10000.000 0.000 0.000 0.000 0.000 0.989
35 105.00 1500.01 921 2314 1.520 10000.000 0.000 0.000 0.000 0.000 0.989
36 108.00 1500.01 862 2380 1.520 10000.000 0.000 0.000 0.000 0.000 0.989
37 111.00 1500.01 941 2335 1.520 10000.000 0.000 0.000 0.000 0.000 0.989
38 114.00 1500.01 906 2321 1.520 10000.000 0.000 0.000 0.000 0.000 0.989
39 117.00 1500.01 925 2170 1.520 10000.000 0.000 0.000 0.000 0.000 0.989
40 120.00 1500.01 891 2281 1.520 10000.000 0.000 0.000 0.000 0.000 0.989
41 123.00 1500.01 881 2236 1.520 10000.000 0.000 0.000 0.000 0.000 0.989
42 126.00 1500.01 842 2260 1.520 10000.000 0.000 0.000 0.000 0.000 0.989
43 129.00 1500.01 870 2283 1.520 10000.000 0.000 0.000 0.000 0.000 0.989
44 132.00 1500.01 877 2311 1.520 10000.000 0.000 0.000 0.000 0.000 0.989
45 135.00 1500.01 865 2262 1.520 10000.000 0.000 0.000 0.000 0.000 0.989
46 138.00 1500.01 872 2400 1.520 10000.000 0.000 0.000 0.000 0.000 0.989
47 141.00 1500.01 908 2202 1.520 10000.000 0.000 0.000 0.000 0.000 0.989
48 144.00 1500.01 927 2280 1.520 10000.000 0.000 0.000 0.000 0.000 0.989
49 147.00 1500.01 908 2296 1.520 10000.000 0.000 0.000 0.000 0.000 0.989
50 150.00 1500.01 926 2315 1.520 10000.000 0.000 0.000 0.000 0.000 0.989
51 153.00 1500.01 883 2326 1.520 10000.000 0.000 0.000 0.000 0.000 0.989
52 156.00 1500.01 876 2350 1.520 10000.000 0.000 0.000 0.000 0.000 0.989
53 159.00 1500.01 864 2302 1.520 10000.000 0.000 0.000 0.000 0.000 0.989
54 162.00 1500.01 864 2183 1.520 10000.000 0.000 0.000 0.000 0.000 0.989
55 165.00 1500.01 916 2344 1.520 10000.000 0.000 0.000 0.000 0.000 0.989
56 168.00 1500.01 893 2351 1.520 10000.000 0.000 0.000 0.000 0.000 0.989
57 171.00 1500.01 851 2351 1.520 10000.000 0.000 0.000 0.000 0.000 0.989
58 174.00 1500.01 910 2280 1.520 10000.000 0.000 0.000 0.000 0.000 0.989
59 177.00 1500.01 907 2289 1.520 10000.000 0.000 0.000 0.000 0.000 0.989
60 180.00 1500.01 897 2372 1.520 10000.000 0.000 0.000 0.000 0.000 0.989
61 183.00 1500.01 871 2243 1.520 10000.000 0.000 0.000 0.000 0.000 0.989
62 186.00 1500.01 885 2229 1.520 10000.000 0.000 0.000 0.000 0.000 0.989
63 189.00 1500.01 870 2284 1.520 10000.000 0.000 0.000 0.000 0.000 0.989
64 192.00 1500.01 953 2307 1.520 10000.000 0.000 0.000 0.000 0.000 0.989
65 195.00 1500.01 866 2275 1.520 10000.000 0.000 0.000 0.000 0.000 0.989
66 198.00 1500.01 896 2332 1.520 10000.000 0.000 0.000 0.000 0.000 0.989
67 201.00 1500.01 848 2311 1.520 10000.000 0.000 0.000 0.000 0.000 0.989
68 204.00 1500.01 883 2328 1.520 10000.000 0.000 0.000 0.000 0.000 0.989
69 207.00 1500.01 826 2317 1.520 10000.000 0.000 0.000 0.000 0.000 0.989
70 210.00 1500.01 868 2267 1.520 10000.000 0.000 0.000 0.000 0.000 0.989
71 213.00 1500.01 845 2329 1.520 10000.000 0.000 0.000 0.000 0.000 0.989
72 216.00 1500.01 943 2337 1.520 10000.000 0.000 0.000 0.000 0.000 0.989
73 219.00 1500.01 867 2192 1.520 10000.000 0.000 0.000 0.000 0.000 0.989
74 222.00 1500.01 895 2327 1.520 10000.000 0.000 0.000 0.000 0.000 0.989
75 225.00 1500.01 861 2330 1.520 10000.000 0.000 0.000 0.000 0.000 0.989
76 228.00 1500.01 882 2341 1.520 10000.000 0.000 0.000 0.000 0.000 0.989
77 231.00 1500.01 853 2246 1.520 10000.000 0.000 0.000 0.000 0.000 0.989
78 234.00 1500.01 891 2326 1.520 10000.000 0.000 0.000 0.000 0.000 0.989
79 237.00 1500.01 842 2314 1.520 10000.000 0.000 0.000 0.000 0.000 0.989
80 240.00 1500.01 900 2403 1.520 10000.000 0.000 0.000 0.000 0.000 0.989
81 243.00 1500.01 873 2261 1.520 10000.000 0.000 0.000 0.000 0.000 0.989
82 246.00 1500.01 866 2292 1.520 10000.000 0.000 0.000 0.000 0.000 0.989
83 249.00 1500.01 875 2303 1.520 10000.000 0.000 0.000 0.000 0.000 0.989
84 252.00 1500.01 902 2354 1.520 10000.000 0.000 0.000 0.000 0.000 0.989
85 255.00 1500.01 821 2283 1.520 10000.000 0.000 0.000 0.000 0.000 0.989
86 258.00 1500.01 898 2243 1.520 10000.000 0.000 0.000 0.000 0.000 0.989
87 261.00 1500.01 907 2291 1.520 10000.000 0.000 0.000 0.000 0.000 0.989
88 264.00 1500.01 904 2334 1.520 10000.000 0.000 0.000 0.000 0.000 0.989
89 267.00 1500.01 877 2189 1.520 10000.000 0.000 0.000 0.000 0.000 0.989
90 270.00 1500.01 931 2359 1.520 10000.000 0.000 0.000 0.000 0.000 0.989
91 273.00 1500.01 856 2312 1.520 10000.000 0.000 0.000 0.000 0.000 0.989
92 276.00 1500.01 889 2299 1.520 10000.000 0.000 0.000 0.000 0.000 0.989
93 279.00 1500.01 882 2223 1.520 10000.000 0.000 0.000 0.000 0.000 0.989
94 282.00 1500.01 874 2358 1.520 10000.000 0.000 0.000 0.000 0.000 0.989
95 285.00 1500.01 895 2394 1.520 10000.000 0.000 0.000 0.000 0.000 0.989
96 288.00 1500.01 909 2346 1.520 10000.000 0.000 0.000 0.000 0.000 0.989
97 291.00 1500.01 905 2358 1.520 10000.000 0.000 0.000 0.000 0.000 0.989
98 294.00 1500.01 936 2351 1.520 10000.000 0.000 0.000 0.000 0.000 0.989
99 297.00 1500.01 908 2256 1.520 10000.000 0.000 0.000 0.000 0.000 0.989
100 300.00 1500.01 887 2338 1.520 10000.000 0.000 0.000 0.000 0.000 0.989
101 303.00 1500.01 868 2267 1.520 10000.000 0.000 0.000 0.000 0.000 0.989
102 306.00 1500.01 841 2317 1.520 10000.000 0.000 0.000 0.000 0.000 0.989
103 309.00 1500.01 909 2397 1.520 10000.000 0.000 0.000 0.000 0.000 0.989
104 312.00 1500.01 904 2312 1.520 10000.000 0.000 0.000 0.000 0.000 0.989
105 315.00 1500.01 917 2267 1.520 10000.000 0.000 0.000 0.000 0.000 0.989
106 318.00 1500.01 889 2406 1.520 10000.000 0.000 0.000 0.000 0.000 0.989
107 321.00 1500.01 808 2246 1.520 10000.000 0.000 0.000 0.000 0.000 0.989
108 324.00 1500.01 868 2295 1.520 10000.000 0.000 0.000 0.000 0.000 0.989
109 327.00 1500.01 884 2378 1.520 10000.000 0.000 0.000 0.000 0.000 0.989
110 330.00 1500.01 849 2299 1.520 10000.000 0.000 0.000 0.000 0.000 0.989
111 333.00 1500.01 917 2227 1.520 10000.000 0.000 0.000 0.000 0.000 0.989
112 336.00 1500.01 898 2361 1.520 10000.000 0.000 0.000 0.000 0.000 0.989
113 339.00 1500.01 817 2257 1.520 10000.000 0.000 0.000 0.000 0.000 0.989
114 342.00 1500.01 914 2313 1.520 10000.000 0.000 0.000 0.000 0.000 0.989
115 345.00 1500.01 838 2267 1.520 10000.000 0.000 0.000 0.000 0.000 0.989
116 348.00 1500.01 900 2392 1.520 10000.000 0.000 0.000 0.000 0.000 0.989
117 351.00 1500.01 847 2298 1.520 10000.000 0.000 0.000 0.000 0.000 0.989
118 354.00 1500.01 930 2308 1.520 10000.000 0.000 0.000 0.000 0.000 0.989
119 357.00 1500.01 851 2261 1.520 10000.000 0.000 0.000 0.000 0.000 0.989
120 360.00 1500.01 860 2416 1.520 10000.000 0.000 0.000 0.000 0.000 0.989
121 363.00 1500.01 910 2209 1.520 10000.000 0.000 0.000 0.000 0.000 0.989
122 366.00 1500.01 930 2268 1.520 10000.000 0.000 0.000 0.000 0.000 0.989
123 369.00 1500.01 880 2227 1.520 10000.000 0.000 0.000 0.000 0.000 0.989
124 372.00 1500.01 900 2416 1.520 10000.000 0.000 0.000 0.000 0.000 0.989
125 375.00 1500.01 922 2214 1.520 10000.000 0.000 0.000 0.000 0.000 0.989
126 378.00 1500.01 935 2375 1.520 10000.000 0.000 0.000 0.000 0.000 0.989
127 381.00 1500.01 877 2291 1.520 10000.000 0.000 0.000 0.000 0.000 0.989
128 384.00 1500.01 926 2305 1.520 10000.000 0.000 0.000 0.000 0.000 0.989
129 387.00 1500.01 877 2289 1.520 10000.000 0.000 0.000 0.000 0.000 0.989
130 390.00 1500.01 934 2293 1.520 10000.000 0.000 0.000 0.000 0.000 0.989
131 393.00 1500.01 893 2234 1.520 10000.000 0.000 0.000 0.000 0.000 0.989
132 396.00 1500.01 933 2248 1.520 10000.000 0.000 0.000 0.000 0.000 0.989
133 399.00 1500.01 908 2242 1.520 10000.000 0.000 0.000 0.000 0.000 0.989
134 402.00 1500.01 897 2299 1.520 10000.000 0.000 0.000 0.000 0.000 0.989
135 405.00 1500.01 864 2269 1.520 10000.000 0.000 0.000 0.000 0.000 0.989
136 408.00 1500.01 904 2275 1.520 10000.000 0.000 0.000 0.000 0.000 0.989
137 411.00 1500.01 917 2325 1.520 10000.000 0.000 0.000 0.000 0.000 0.989
138 414.00 1500.01 920 2359 1.520 10000.000 0.000 0.000 0.000 0.000 0.989
139 417.00 1500.01 887 2309 1.520 10000.000 0.000 0.000 0.000 0.000 0.989
140 420.00 1500.01 891 2331 1.520 10000.000 0.000 0.000 0.000 0.000 0.989
141 423.00 1500.01 875 2271 1.520 10000.000 0.000 0.000 0.000 0.000 0.989
142 426.00 1500.01 925 2263 1.520 10000.000 0.000 0.000 0.000 0.000 0.989
143 429.00 1500.01 903 2239 1.520 10000.000 0.000 0.000 0.000 0.000 0.989
144 432.00 1500.01 897 2393 1.520 10000.000 0.000 0.000 0.000 0.000 0.989
