# BinNR microsec tot-time (s)  O-Beam AUX Ampl_1(V) f_1(Hz) phase_1(deg) Ampl_2(V) f_2(Hz) phase_2(deg) chi(pos)
0 0.00 1500.00 441 1105 1.520 10000.000 0.000 0.000 0.000 0.000 0.000
1 3.00 1500.00 880 2269 1.520 10000.000 0.000 0.000 0.000 0.000 0.000
2 6.00 1500.00 903 2370 1.520 10000.000 0.000 0.000 0.000 0.000 0.000
3 9.00 1500.00 891 2260 1.520 10000.000 0.000 0.000 0.000 0.000 0.000
4 12.00 1500.00 920 2282 1.520 10000.000 0.000 0.000 0.000 0.000 0.000
5 15.00 1500.00 889 2248 1.520 10000.000 0.000 0.000 0.000 0.000 0.000
6 18.00 1500.00 897 2292 1.520 10000.000 0.000 0.000 0.000 0.000 0.000
7 21.00 1500.00 883 2207 1.520 10000.000 0.000 0.000 0.000 0.000 0.000
8 24.00 1500.00 868 2273 1.520 10000.000 0.000 0.000 0.000 0.000 0.000
9 27.00 1500.00 870 2357 1.520 10000.000 0.000 0.000 0.000 0.000 0.000
10 30.00 1500.00 913 2270 1.520 10000.000 0.000 0.000 0.000 0.000 0.000
11 33.00 1500.00 916 2233 1.520 10000.000 0.000 0.000 0.000 0.000 0.000
12 36.00 1500.00 915 2391 1.520 10000.000 0.000 0.000 0.000 0.000 0.000
13 39.00 1500.00 879 2340 1.520 10000.000 0.000 0.000 0.000 0.000 0.000
14 42.00 1500.00 920 2331 1.520 10000.000 0.000 0.000 0.000 0.000 0.000
15 45.00 1500.00 904 2237 1.520 10000.000 0.000 0.000 0.000 0.000 0.000
16 48.00 1500.00 889 2247 1.520 10000.000 0.000 0.000 0.000 0.000 0.000
17 51.00 1500.00 890 2283 1.520 10000.000 0.000 0.000 0.000 0.000 0.000
18 54.00 1500.00 871 2316 1.520 10000.000 0.000 0.000 0.000 0.000 0.000
19 57.00 1500.00 863 2220 1.520 10000.000 0.000 0.000 0.000 0.000 0.000
20 60.00 1500.00 932 2318 1.520 10000.000 0.000 0.000 0.000 0.000 0.000
21 63.00 1500.00 941 2306 1.520 10000.000 0.000 0.000 0.000 0.000 0.000
22 66.00 1500.00 886 2260 1.520 10000.000 0.000 0.000 0.000 0.000 0.000
23 69.00 1500.00 905 2328 1.520 10000.000 0.000 0.000 0.000 0.000 0.000
24 72.00 1500.00 927 2250 1.520 10000.000 0.000 0.000 0.000 0.000 0.000
25 75.00 1500.00 866 2248 1.520 10000.000 0.000 0.000 0.000 0.000 0.000
26 78.00 1500.00 890 2324 1.520 10000.000 0.000 0.000 0.000 0.000 0.000
27 81.00 1500.00 861 2221 1.520 10000.000 0.000 0.000 0.000 0.000 0.000
28 84.00 1500.00 843 2297 1.520 10000.000 0.000 0.000 0.000 0.000 0.000
29 87.00 1500.00 846 2246 1.520 10000.000 0.000 0.000 0.000 0.000 0.000
30 90.00 1500.00 885 2232 1.520 10000.000 0.000 0.000 0.000 0.000 0.000
31 93.00 1500.00 891 2219 1.520 10000.000 0.000 0.000 0.000 0.000 0.000
32 96.00 1500.00 900 2238 1.520 10000.000 0.000 0.000 0.000 0.000 0.000
33 99.00 1500.00 842 2258 1.520 10000.000 0.000 0.000 0.000 0.000 0.000
34 102.00 1500.00 884 2247 1.520 10000.000 0.000 0.000 0.000 0.000 0.000
35 105.00 1500.00 915 2301 1.520 10000.000 0.000 0.000 0.000 0.000 0.000
36 108.00 1500.00 927 2246 1.520 10000.000 0.000 0.000 0.000 0.000 0.000
37 111.00 1500.00 872 2281 1.520 10000.000 0.000 0.000 0.000 0.000 0.000
38 114.00 1500.00 845 2354 1.520 10000.000 0.000 0.000 0.000 0.000 0.000
39 117.00 1500.00 861 2330 1.520 10000.000 0.000 0.000 0.000 0.000 0.000
40 120.00 1500.00 903 2313 1.520 10000.000 0.000 0.000 0.000 0.000 0.000
41 123.00 1500.00 855 2313 1.520 10000.000 0.000 0.000 0.000 0.000 0.000
42 126.00 1500.00 863 2374 1.520 10000.000 0.000 0.000 0.000 0.000 0.000
43 129.00 1500.00 866 2264 1.520 10000.000 0.000 0.000 0.000 0.000 0.000
44 132.00 1500.00 853 2277 1.520 10000.000 0.000 0.000 0.000 0.000 0.000
45 135.00 1500.00 853 2238 1.520 10000.000 0.000 0.000 0.000 0.000 0.000
46 138.00 1500.00 838 2452 1.520 10000.000 0.000 0.000 0.000 0.000 0.000
47 141.00 1500.00 879 2296 1.520 10000.000 0.000 0.000 0.000 0.000 0.000
48 144.00 1500.00 903 2405 1.520 10000.000 0.000 0.000 0.000 0.000 0.000
49 147.00 1500.00 884 2313 1.520 10000.000 0.000 0.000 0.000 0.000 0.000
50 150.00 1500.00 886 2242 1.520 10000.000 0.000 0.000 0.000 0.000 0.000
51 153.00 1500.00 835 2278 1.520 10000.000 0.000 0.000 0.000 0.000 0.000
52 156.00 1500.00 871 2405 1.520 10000.000 0.000 0.000 0.000 0.000 0.000
53 159.00 1500.00 881 2248 1.520 10000.000 0.000 0.000 0.000 0.000 0.000
54 162.00 1500.00 846 2281 1.520 10000.000 0.000 0.000 0.000 0.000 0.000
55 165.00 1500.00 921 2347 1.520 10000.000 0.000 0.000 0.000 0.000 0.000
56 168.00 1500.00 870 2254 1.520 10000.000 0.000 0.000 0.000 0.000 0.000
57 171.00 1500.00 913 2249 1.520 10000.000 0.000 0.000 0.000 0.000 0.000
58 174.00 1500.00 904 2311 1.520 10000.000 0.000 0.000 0.000 0.000 0.000
59 177.00 1500.00 858 2245 1.520 10000.000 0.000 0.000 0.000 0.000 0.000
60 180.00 1500.00 927 2274 1.520 10000.000 0.000 0.000 0.000 0.000 0.000
61 183.00 1500.00 925 2282 1.520 10000.000 0.000 0.000 0.000 0.000 0.000
62 186.00 1500.00 858 2355 1.520 10000.000 0.000 0.000 0.000 0.000 0.000
63 189.00 1500.00 839 2309 1.520 10000.000 0.000 0.000 0.000 0.000 0.000
64 192.00 1500.00 873 2344 1.520 10000.000 0.000 0.000 0.000 0.000 0.000
65 195.00 1500.00 851 2254 1.520 10000.000 0.000 0.000 0.000 0.000 0.000
66 198.00 1500.00 909 2372 1.520 10000.000 0.000 0.000 0.000 0.000 0.000
67 201.00 1500.00 927 2306 1.520 10000.000 0.000 0.000 0.000 0.000 0.000
68 204.00 1500.00 869 2276 1.520 10000.000 0.000 0.000 0.000 0.000 0.000
69 207.00 1500.00 889 2347 1.520 10000.000 0.000 0.000 0.000 0.000 0.000
70 210.00 1500.00 894 2268 1.520 10000.000 0.000 0.000 0.000 0.000 0.000
71 213.00 1500.00 825 2272 1.520 10000.000 0.000 0.000 0.000 0.000 0.000
72 216.00 1500.00 944 2277 1.520 10000.000 0.000 0.000 0.000 0.000 0.000
73 219.00 1500.00 886 2320 1.520 10000.000 0.000 0.000 0.000 0.000 0.000
74 222.00 1500.00 903 2352 1.520 10000.000 0.000 0.000 0.000 0.000 0.000
75 225.00 1500.00 868 2192 1.520 10000.000 0.000 0.000 0.000 0.000 0.000
76 228.00 1500.00 882 2214 1.520 10000.000 0.000 0.000 0.000 0.000 0.000
77 231.00 1500.00 845 2315 1.520 10000.000 0.000 0.000 0.000 0.000 0.000
78 234.00 1500.00 901 2275 1.520 10000.000 0.000 0.000 0.000 0.000 0.000
79 237.00 1500.00 873 2277 1.520 10000.000 0.000 0.000 0.000 0.000 0.000
80 240.00 1500.00 936 2430 1.520 10000.000 0.000 0.000 0.000 0.000 0.000
81 243.00 1500.00 912 2336 1.520 10000.000 0.000 0.000 0.000 0.000 0.000
82 246.00 1500.00 878 2263 1.520 10000.000 0.000 0.000 0.000 0.000 0.000
83 249.00 1500.00 916 2244 1.520 10000.000 0.000 0.000 0.000 0.000 0.000
84 252.00 1500.00 902 2265 1.520 10000.000 0.000 0.000 0.000 0.000 0.000
85 255.00 1500.00 851 2387 1.520 10000.000 0.000 0.000 0.000 0.000 0.000
86 258.00 1500.00 849 2337 1.520 10000.000 0.000 0.000 0.000 0.000 0.000
87 261.00 1500.00 831 2243 1.520 10000.000 0.000 0.000 0.000 0.000 0.000
88 264.00 1500.00 936 2266 1.520 10000.000 0.000 0.000 0.000 0.000 0.000
89 267.00 1500.00 864 2371 1.520 10000.000 0.000 0.000 0.000 0.000 0.000
90 270.00 1500.00 886 2252 1.520 10000.000 0.000 0.000 0.000 0.000 0.000
91 273.00 1500.00 880 2229 1.520 10000.000 0.000 0.000 0.000 0.000 0.000
92 276.00 1500.00 876 2308 1.520 10000.000 0.000 0.000 0.000 0.000 0.000
93 279.00 1500.00 882 2305 1.520 10000.000 0.000 0.000 0.000 0.000 0.000
94 282.00 1500.00 930 2354 1.520 10000.000 0.000 0.000 0.000 0.000 0.000
95 285.00 1500.00 880 2311 1.520 10000.000 0.000 0.000 0.000 0.000 0.000
96 288.00 1500.00 923 2298 1.520 10000.000 0.000 0.000 0.000 0.000 0.000
97 291.00 1500.00 921 2184 1.520 10000.000 0.000 0.000 0.000 0.000 0.000
98 294.00 1500.00 886 2320 1.520 10000.000 0.000 0.000 0.000 0.000 0.000
99 297.00 1500.00 815 2321 1.520 10000.000 0.000 0.000 0.000 0.000 0.000
100 300.00 1500.00 912 2260 1.520 10000.000 0.000 0.000 0.000 0.000 0.000
101 303.00 1500.00 929 2277 1.520 10000.000 0.000 0.000 0.000 0.000 0.000
102 306.00 1500.00 886 2370 1.520 10000.000 0.000 0.000 0.000 0.000 0.000
103 309.00 1500.00 876 2282 1.520 10000.000 0.000 0.000 0.000 0.000 0.000
104 312.00 1500.00 887 2370 1.520 10000.000 0.000 0.000 0.000 0.000 0.000
105 315.00 1500.00 901 2333 1.520 10000.000 0.000 0.000 0.000 0.000 0.000
106 318.00 1500.00 923 2307 1.520 10000.000 0.000 0.000 0.000 0.000 0.000
107 321.00 1500.00 888 2302 1.520 10000.000 0.000 0.000 0.000 0.000 0.000
108 324.00 1500.00 910 2305 1.520 10000.000 0.000 0.000 0.000 0.000 0.000
109 327.00 1500.00 865 2175 1.520 10000.000 0.000 0.000 0.000 0.000 0.000
110 330.00 1500.00 875 2265 1.520 10000.000 0.000 0.000 0.000 0.000 0.000
111 333.00 1500.00 928 2304 1.520 10000.000 0.000 0.000 0.000 0.000 0.000
112 336.00 1500.00 908 2364 1.520 10000.000 0.000 0.000 0.000 0.000 0.000
113 339.00 1500.00 891 2243 1.520 10000.000 0.000 0.000 0.000 0.000 0.000
114 342.00 1500.00 873 2274 1.520 10000.000 0.000 0.000 0.000 0.000 0.000
115 345.00 1500.00 912 2335 1.520 10000.000 0.000 0.000 0.000 0.000 0.000
116 348.00 1500.00 881 2287 1.520 10000.000 0.000 0.000 0.000 0.000 0.000
117 351.00 1500.00 876 2247 1.520 10000.000 0.000 0.000 0.000 0.000 0.000
118 354.00 1500.00 884 2393 1.520 10000.000 0.000 0.000 0.000 0.000 0.000
119 357.00 1500.00 881 2288 1.520 10000.000 0.000 0.000 0.000 0.000 0.000
120 360.00 1500.00 899 2273 1.520 10000.000 0.000 0.000 0.000 0.000 0.000
121 363.00 1500.00 868 2238 1.520 10000.000 0.000 0.000 0.000 0.000 0.000
122 366.00 1500.00 818 2271 1.520 10000.000 0.000 0.000 0.000 0.000 0.000
123 369.00 1500.00 857 2296 1.520 10000.000 0.000 0.000 0.000 0.000 0.000
124 372.00 1500.00 857 2290 1.520 10000.000 0.000 0.000 0.000 0.000 0.000
125 375.00 1500.00 881 2257 1.520 10000.000 0.000 0.000 0.000 0.000 0.000
126 378.00 1500.00 870 2330 1.520 10000.000 0.000 0.000 0.000 0.000 0.000
127 381.00 1500.00 905 2289 1.520 10000.000 0.000 0.000 0.000 0.000 0.000
128 384.00 1500.00 919 2301 1.520 10000.000 0.000 0.000 0.000 0.000 0.000
129 387.00 1500.00 859 2347 1.520 10000.000 0.000 0.000 0.000 0.000 0.000
130 390.00 1500.00 882 2296 1.520 10000.000 0.000 0.000 0.000 0.000 0.000
131 393.00 1500.00 853 2268 1.520 10000.000 0.000 0.000 0.000 0.000 0.000
132 396.00 1500.00 825 2275 1.520 10000.000 0.000 0.000 0.000 0.000 0.000
133 399.00 1500.00 822 2288 1.520 10000.000 0.000 0.000 0.000 0.000 0.000
134 402.00 1500.00 880 2306 1.520 10000.000 0.000 0.000 0.000 0.000 0.000
135 405.00 1500.00 919 2205 1.520 10000.000 0.000 0.000 0.000 0.000 0.000
136 408.00 1500.00 857 2372 1.520 10000.000 0.000 0.000 0.000 0.000 0.000
137 411.00 1500.00 876 2211 1.520 10000.000 0.000 0.000 0.000 0.000 0.000
138 414.00 1500.00 885 2288 1.520 10000.000 0.000 0.000 0.000 0.000 0.000
139 417.00 1500.00 869 2242 1.520 10000.000 0.000 0.000 0.000 0.000 0.000
140 420.00 1500.00 906 2360 1.520 10000.000 0.000 0.000 0.000 0.000 0.000
141 423.00 1500.00 872 2192 1.520 10000.000 0.000 0.000 0.000 0.000 0.000
142 426.00 1500.00 898 2287 1.520 10000.000 0.000 0.000 0.000 0.000 0.000
143 429.00 1500.00 824 2330 1.520 10000.000 0.000 0.000 0.000 0.000 0.000
144 432.00 1500.00 929 2246 1.520 10000.000 0.000 0.000 0.000 0.000 0.000
