# BinNR microsec tot-time (s)  O-Beam AUX Ampl_1(V) f_1(Hz) phase_1(deg) Ampl_2(V) f_2(Hz) phase_2(deg) chi(pos)
0 0.00 1500.00 497 1200 1.520 10000.000 0.000 0.000 0.000 0.000 -1.340
1 3.00 1500.00 889 2279 1.520 10000.000 0.000 0.000 0.000 0.000 -1.340
2 6.00 1500.00 909 2423 1.520 10000.000 0.000 0.000 0.000 0.000 -1.340
3 9.00 1500.00 906 2352 1.520 10000.000 0.000 0.000 0.000 0.000 -1.340
4 12.00 1500.00 893 2389 1.520 10000.000 0.000 0.000 0.000 0.000 -1.340
5 15.00 1500.00 845 2357 1.520 10000.000 0.000 0.000 0.000 0.000 -1.340
6 18.00 1500.00 917 2295 1.520 10000.000 0.000 0.000 0.000 0.000 -1.340
7 21.00 1500.00 902 2329 1.520 10000.000 0.000 0.000 0.000 0.000 -1.340
8 24.00 1500.00 956 2377 1.520 10000.000 0.000 0.000 0.000 0.000 -1.340
9 27.00 1500.00 840 2415 1.520 10000.000 0.000 0.000 0.000 0.000 -1.340
10 30.00 1500.00 911 2332 1.520 10000.000 0.000 0.000 0.000 0.000 -1.340
11 33.00 1500.00 916 2342 1.520 10000.000 0.000 0.000 0.000 0.000 -1.340
12 36.00 1500.00 902 2447 1.520 10000.000 0.000 0.000 0.000 0.000 -1.340
13 39.00 1500.00 846 2343 1.520 10000.000 0.000 0.000 0.000 0.000 -1.340
14 42.00 1500.00 853 2387 1.520 10000.000 0.000 0.000 0.000 0.000 -1.340
15 45.00 1500.00 919 2430 1.520 10000.000 0.000 0.000 0.000 0.000 -1.340
16 48.00 1500.00 915 2395 1.520 10000.000 0.000 0.000 0.000 0.000 -1.340
17 51.00 1500.00 835 2285 1.520 10000.000 0.000 0.000 0.000 0.000 -1.340
18 54.00 1500.00 950 2378 1.520 10000.000 0.000 0.000 0.000 0.000 -1.340
19 57.00 1500.00 911 2317 1.520 10000.000 0.000 0.000 0.000 0.000 -1.340
20 60.00 1500.00 893 2378 1.520 10000.000 0.000 0.000 0.000 0.000 -1.340
21 63.00 1500.00 881 2298 1.520 10000.000 0.000 0.000 0.000 0.000 -1.340
22 66.00 1500.00 921 2338 1.520 10000.000 0.000 0.000 0.000 0.000 -1.340
23 69.00 1500.00 870 2323 1.520 10000.000 0.000 0.000 0.000 0.000 -1.340
24 72.00 1500.00 878 2393 1.520 10000.000 0.000 0.000 0.000 0.000 -1.340
25 75.00 1500.00 926 2370 1.520 10000.000 0.000 0.000 0.000 0.000 -1.340
26 78.00 1500.00 894 2455 1.520 10000.000 0.000 0.000 0.000 0.000 -1.340
27 81.00 1500.00 958 2353 1.520 10000.000 0.000 0.000 0.000 0.000 -1.340
28 84.00 1500.00 925 2349 1.520 10000.000 0.000 0.000 0.000 0.000 -1.340
29 87.00 1500.00 882 2317 1.520 10000.000 0.000 0.000 0.000 0.000 -1.340
30 90.00 1500.00 911 2359 1.520 10000.000 0.000 0.000 0.000 0.000 -1.340
31 93.00 1500.00 885 2432 1.520 10000.000 0.000 0.000 0.000 0.000 -1.340
32 96.00 1500.00 886 2334 1.520 10000.000 0.000 0.000 0.000 0.000 -1.340
33 99.00 1500.00 852 2326 1.520 10000.000 0.000 0.000 0.000 0.000 -1.340
34 102.00 1500.00 878 2401 1.520 10000.000 0.000 0.000 0.000 0.000 -1.340
35 105.00 1500.00 868 2310 1.520 10000.000 0.000 0.000 0.000 0.000 -1.340
36 108.00 1500.00 907 2243 1.520 10000.000 0.000 0.000 0.000 0.000 -1.340
37 111.00 1500.00 914 2306 1.520 10000.000 0.000 0.000 0.000 0.000 -1.340
38 114.00 1500.00 926 2357 1.520 10000.000 0.000 0.000 0.000 0.000 -1.340
39 117.00 1500.00 902 2293 1.520 10000.000 0.000 0.000 0.000 0.000 -1.340
40 120.00 1500.00 923 2349 1.520 10000.000 0.000 0.000 0.000 0.000 -1.340
41 123.00 1500.00 865 2369 1.520 10000.000 0.000 0.000 0.000 0.000 -1.340
42 126.00 1500.00 886 2411 1.520 10000.000 0.000 0.000 0.000 0.000 -1.340
43 129.00 1500.00 861 2343 1.520 10000.000 0.000 0.000 0.000 0.000 -1.340
44 132.00 1500.00 894 2301 1.520 10000.000 0.000 0.000 0.000 0.000 -1.340
45 135.00 1500.00 881 2413 1.520 10000.000 0.000 0.000 0.000 0.000 -1.340
46 138.00 1500.00 894 2451 1.520 10000.000 0.000 0.000 0.000 0.000 -1.340
47 141.00 1500.00 945 2401 1.520 10000.000 0.000 0.000 0.000 0.000 -1.340
48 144.00 1500.00 919 2378 1.520 10000.000 0.000 0.000 0.000 0.000 -1.340
49 147.00 1500.00 903 2349 1.520 10000.000 0.000 0.000 0.000 0.000 -1.340
50 150.00 1500.00 913 2418 1.520 10000.000 0.000 0.000 0.000 0.000 -1.340
51 153.00 1500.00 883 2269 1.520 10000.000 0.000 0.000 0.000 0.000 -1.340
52 156.00 1500.00 907 2421 1.520 10000.000 0.000 0.000 0.000 0.000 -1.340
53 159.00 1500.00 933 2321 1.520 10000.000 0.000 0.000 0.000 0.000 -1.340
54 162.00 1500.00 897 2437 1.520 10000.000 0.000 0.000 0.000 0.000 -1.340
55 165.00 1500.00 914 2386 1.520 10000.000 0.000 0.000 0.000 0.000 -1.340
56 168.00 1500.00 929 2445 1.520 10000.000 0.000 0.000 0.000 0.000 -1.340
57 171.00 1500.00 886 2419 1.520 10000.000 0.000 0.000 0.000 0.000 -1.340
58 174.00 1500.00 942 2453 1.520 10000.000 0.000 0.000 0.000 0.000 -1.340
59 177.00 1500.00 935 2370 1.520 10000.000 0.000 0.000 0.000 0.000 -1.340
60 180.00 1500.00 931 2361 1.520 10000.000 0.000 0.000 0.000 0.000 -1.340
61 183.00 1500.00 844 2260 1.520 10000.000 0.000 0.000 0.000 0.000 -1.340
62 186.00 1500.00 892 2435 1.520 10000.000 0.000 0.000 0.000 0.000 -1.340
63 189.00 1500.00 844 2308 1.520 10000.000 0.000 0.000 0.000 0.000 -1.340
64 192.00 1500.00 962 2476 1.520 10000.000 0.000 0.000 0.000 0.000 -1.340
65 195.00 1500.00 909 2439 1.520 10000.000 0.000 0.000 0.000 0.000 -1.340
66 198.00 1500.00 943 2385 1.520 10000.000 0.000 0.000 0.000 0.000 -1.340
67 201.00 1500.00 952 2346 1.520 10000.000 0.000 0.000 0.000 0.000 -1.340
68 204.00 1500.00 916 2338 1.520 10000.000 0.000 0.000 0.000 0.000 -1.340
69 207.00 1500.00 891 2354 1.520 10000.000 0.000 0.000 0.000 0.000 -1.340
70 210.00 1500.00 912 2399 1.520 10000.000 0.000 0.000 0.000 0.000 -1.340
71 213.00 1500.00 938 2373 1.520 10000.000 0.000 0.000 0.000 0.000 -1.340
72 216.00 1500.00 895 2386 1.520 10000.000 0.000 0.000 0.000 0.000 -1.340
73 219.00 1500.00 894 2329 1.520 10000.000 0.000 0.000 0.000 0.000 -1.340
74 222.00 1500.00 949 2409 1.520 10000.000 0.000 0.000 0.000 0.000 -1.340
75 225.00 1500.00 885 2333 1.520 10000.000 0.000 0.000 0.000 0.000 -1.340
76 228.00 1500.00 912 2404 1.520 10000.000 0.000 0.000 0.000 0.000 -1.340
77 231.00 1500.00 894 2340 1.520 10000.000 0.000 0.000 0.000 0.000 -1.340
78 234.00 1500.00 835 2399 1.520 10000.000 0.000 0.000 0.000 0.000 -1.340
79 237.00 1500.00 885 2433 1.520 10000.000 0.000 0.000 0.000 0.000 -1.340
80 240.00 1500.00 921 2436 1.520 10000.000 0.000 0.000 0.000 0.000 -1.340
81 243.00 1500.00 887 2294 1.520 10000.000 0.000 0.000 0.000 0.000 -1.340
82 246.00 1500.00 914 2409 1.520 10000.000 0.000 0.000 0.000 0.000 -1.340
83 249.00 1500.00 887 2331 1.520 10000.000 0.000 0.000 0.000 0.000 -1.340
84 252.00 1500.00 875 2373 1.520 10000.000 0.000 0.000 0.000 0.000 -1.340
85 255.00 1500.00 958 2367 1.520 10000.000 0.000 0.000 0.000 0.000 -1.340
86 258.00 1500.00 921 2520 1.520 10000.000 0.000 0.000 0.000 0.000 -1.340
87 261.00 1500.00 881 2410 1.520 10000.000 0.000 0.000 0.000 0.000 -1.340
88 264.00 1500.00 886 2431 1.520 10000.000 0.000 0.000 0.000 0.000 -1.340
89 267.00 1500.00 850 2348 1.520 10000.000 0.000 0.000 0.000 0.000 -1.340
90 270.00 1500.00 879 2379 1.520 10000.000 0.000 0.000 0.000 0.000 -1.340
91 273.00 1500.00 863 2335 1.520 10000.000 0.000 0.000 0.000 0.000 -1.340
92 276.00 1500.00 919 2338 1.520 10000.000 0.000 0.000 0.000 0.000 -1.340
93 279.00 1500.00 935 2309 1.520 10000.000 0.000 0.000 0.000 0.000 -1.340
94 282.00 1500.00 899 2285 1.520 10000.000 0.000 0.000 0.000 0.000 -1.340
95 285.00 1500.00 887 2384 1.520 10000.000 0.000 0.000 0.000 0.000 -1.340
96 288.00 1500.00 906 2345 1.520 10000.000 0.000 0.000 0.000 0.000 -1.340
97 291.00 1500.00 894 2401 1.520 10000.000 0.000 0.000 0.000 0.000 -1.340
98 294.00 1500.00 946 2324 1.520 10000.000 0.000 0.000 0.000 0.000 -1.340
99 297.00 1500.00 857 2369 1.520 10000.000 0.000 0.000 0.000 0.000 -1.340
100 300.00 1500.00 887 2367 1.520 10000.000 0.000 0.000 0.000 0.000 -1.340
101 303.00 1500.00 879 2319 1.520 10000.000 0.000 0.000 0.000 0.000 -1.340
102 306.00 1500.00 918 2426 1.520 10000.000 0.000 0.000 0.000 0.000 -1.340
103 309.00 1500.00 949 2433 1.520 10000.000 0.000 0.000 0.000 0.000 -1.340
104 312.00 1500.00 974 2326 1.520 10000.000 0.000 0.000 0.000 0.000 -1.340
105 315.00 1500.00 870 2284 1.520 10000.000 0.000 0.000 0.000 0.000 -1.340
106 318.00 1500.00 950 2486 1.520 10000.000 0.000 0.000 0.000 0.000 -1.340
107 321.00 1500.00 897 2383 1.520 10000.000 0.000 0.000 0.000 0.000 -1.340
108 324.00 1500.00 921 2408 1.520 10000.000 0.000 0.000 0.000 0.000 -1.340
109 327.00 1500.00 873 2404 1.520 10000.000 0.000 0.000 0.000 0.000 -1.340
110 330.00 1500.00 925 2384 1.520 10000.000 0.000 0.000 0.000 0.000 -1.340
111 333.00 1500.00 877 2348 1.520 10000.000 0.000 0.000 0.000 0.000 -1.340
112 336.00 1500.00 872 2374 1.520 10000.000 0.000 0.000 0.000 0.000 -1.340
113 339.00 1500.00 854 2324 1.520 10000.000 0.000 0.000 0.000 0.000 -1.340
114 342.00 1500.00 930 2425 1.520 10000.000 0.000 0.000 0.000 0.000 -1.340
115 345.00 1500.00 915 2318 1.520 10000.000 0.000 0.000 0.000 0.000 -1.340
116 348.00 1500.00 933 2362 1.520 10000.000 0.000 0.000 0.000 0.000 -1.340
117 351.00 1500.00 888 2368 1.520 10000.000 0.000 0.000 0.000 0.000 -1.340
118 354.00 1500.00 935 2364 1.520 10000.000 0.000 0.000 0.000 0.000 -1.340
119 357.00 1500.00 907 2442 1.520 10000.000 0.000 0.000 0.000 0.000 -1.340
120 360.00 1500.00 876 2386 1.520 10000.000 0.000 0.000 0.000 0.000 -1.340
121 363.00 1500.00 924 2420 1.520 10000.000 0.000 0.000 0.000 0.000 -1.340
122 366.00 1500.00 874 2361 1.520 10000.000 0.000 0.000 0.000 0.000 -1.340
123 369.00 1500.00 954 2309 1.520 10000.000 0.000 0.000 0.000 0.000 -1.340
124 372.00 1500.00 933 2359 1.520 10000.000 0.000 0.000 0.000 0.000 -1.340
125 375.00 1500.00 898 2300 1.520 10000.000 0.000 0.000 0.000 0.000 -1.340
126 378.00 1500.00 877 2336 1.520 10000.000 0.000 0.000 0.000 0.000 -1.340
127 381.00 1500.00 929 2337 1.520 10000.000 0.000 0.000 0.000 0.000 -1.340
128 384.00 1500.00 904 2394 1.520 10000.000 0.000 0.000 0.000 0.000 -1.340
129 387.00 1500.00 883 2281 1.520 10000.000 0.000 0.000 0.000 0.000 -1.340
130 390.00 1500.00 974 2403 1.520 10000.000 0.000 0.000 0.000 0.000 -1.340
131 393.00 1500.00 902 2434 1.520 10000.000 0.000 0.000 0.000 0.000 -1.340
132 396.00 1500.00 933 2437 1.520 10000.000 0.000 0.000 0.000 0.000 -1.340
133 399.00 1500.00 944 2403 1.520 10000.000 0.000 0.000 0.000 0.000 -1.340
134 402.00 1500.00 875 2427 1.520 10000.000 0.000 0.000 0.000 0.000 -1.340
135 405.00 1500.00 918 2336 1.520 10000.000 0.000 0.000 0.000 0.000 -1.340
136 408.00 1500.00 936 2382 1.520 10000.000 0.000 0.000 0.000 0.000 -1.340
137 411.00 1500.00 898 2369 1.520 10000.000 0.000 0.000 0.000 0.000 -1.340
138 414.00 1500.00 866 2437 1.520 10000.000 0.000 0.000 0.000 0.000 -1.340
139 417.00 1500.00 870 2356 1.520 10000.000 0.000 0.000 0.000 0.000 -1.340
140 420.00 1500.00 880 2440 1.520 10000.000 0.000 0.000 0.000 0.000 -1.340
141 423.00 1500.00 929 2387 1.520 10000.000 0.000 0.000 0.000 0.000 -1.340
142 426.00 1500.00 903 2435 1.520 10000.000 0.000 0.000 0.000 0.000 -1.340
143 429.00 1500.00 867 2336 1.520 10000.000 0.000 0.000 0.000 0.000 -1.340
144 432.00 1500.00 899 2450 1.520 10000.000 0.000 0.000 0.000 0.000 -1.340
