# BinNR microsec tot-time (s)  O-Beam AUX Ampl_1(V) f_1(Hz) phase_1(deg) Ampl_2(V) f_2(Hz) phase_2(deg) chi(pos)
0 0.00 1500.01 405 1189 1.520 10000.000 0.000 0.000 0.000 0.000 -0.835
1 3.00 1500.01 889 2245 1.520 10000.000 0.000 0.000 0.000 0.000 -0.835
2 6.00 1500.01 870 2314 1.520 10000.000 0.000 0.000 0.000 0.000 -0.835
3 9.00 1500.01 870 2295 1.520 10000.000 0.000 0.000 0.000 0.000 -0.835
4 12.00 1500.01 865 2396 1.520 10000.000 0.000 0.000 0.000 0.000 -0.835
5 15.00 1500.01 907 2243 1.520 10000.000 0.000 0.000 0.000 0.000 -0.835
6 18.00 1500.01 891 2395 1.520 10000.000 0.000 0.000 0.000 0.000 -0.835
7 21.00 1500.01 858 2243 1.520 10000.000 0.000 0.000 0.000 0.000 -0.835
8 24.00 1500.01 903 2284 1.520 10000.000 0.000 0.000 0.000 0.000 -0.835
9 27.00 1500.01 923 2260 1.520 10000.000 0.000 0.000 0.000 0.000 -0.835
10 30.00 1500.01 834 2356 1.520 10000.000 0.000 0.000 0.000 0.000 -0.835
11 33.00 1500.01 849 2257 1.520 10000.000 0.000 0.000 0.000 0.000 -0.835
12 36.00 1500.01 855 2271 1.520 10000.000 0.000 0.000 0.000 0.000 -0.835
13 39.00 1500.01 848 2338 1.520 10000.000 0.000 0.000 0.000 0.000 -0.835
14 42.00 1500.01 905 2306 1.520 10000.000 0.000 0.000 0.000 0.000 -0.835
15 45.00 1500.01 909 2311 1.520 10000.000 0.000 0.000 0.000 0.000 -0.835
16 48.00 1500.01 878 2325 1.520 10000.000 0.000 0.000 0.000 0.000 -0.835
17 51.00 1500.01 835 2299 1.520 10000.000 0.000 0.000 0.000 0.000 -0.835
18 54.00 1500.01 904 2321 1.520 10000.000 0.000 0.000 0.000 0.000 -0.835
19 57.00 1500.01 916 2365 1.520 10000.000 0.000 0.000 0.000 0.000 -0.835
20 60.00 1500.01 898 2288 1.520 10000.000 0.000 0.000 0.000 0.000 -0.835
21 63.00 1500.01 903 2310 1.520 10000.000 0.000 0.000 0.000 0.000 -0.835
22 66.00 1500.01 880 2255 1.520 10000.000 0.000 0.000 0.000 0.000 -0.835
23 69.00 1500.01 841 2294 1.520 10000.000 0.000 0.000 0.000 0.000 -0.835
24 72.00 1500.01 876 2329 1.520 10000.000 0.000 0.000 0.000 0.000 -0.835
25 75.00 1500.01 911 2326 1.520 10000.000 0.000 0.000 0.000 0.000 -0.835
26 78.00 1500.01 857 2396 1.520 10000.000 0.000 0.000 0.000 0.000 -0.835
27 81.00 1500.01 925 2355 1.520 10000.000 0.000 0.000 0.000 0.000 -0.835
28 84.00 1500.01 940 2311 1.520 10000.000 0.000 0.000 0.000 0.000 -0.835
29 87.00 1500.01 860 2141 1.520 10000.000 0.000 0.000 0.000 0.000 -0.835
30 90.00 1500.01 873 2360 1.520 10000.000 0.000 0.000 0.000 0.000 -0.835
31 93.00 1500.01 910 2264 1.520 10000.000 0.000 0.000 0.000 0.000 -0.835
32 96.00 1500.01 932 2375 1.520 10000.000 0.000 0.000 0.000 0.000 -0.835
33 99.00 1500.01 937 2357 1.520 10000.000 0.000 0.000 0.000 0.000 -0.835
34 102.00 1500.01 898 2314 1.520 10000.000 0.000 0.000 0.000 0.000 -0.835
35 105.00 1500.01 930 2345 1.520 10000.000 0.000 0.000 0.000 0.000 -0.835
36 108.00 1500.01 907 2294 1.520 10000.000 0.000 0.000 0.000 0.000 -0.835
37 111.00 1500.01 870 2321 1.520 10000.000 0.000 0.000 0.000 0.000 -0.835
38 114.00 1500.01 869 2332 1.520 10000.000 0.000 0.000 0.000 0.000 -0.835
39 117.00 1500.01 885 2256 1.520 10000.000 0.000 0.000 0.000 0.000 -0.835
40 120.00 1500.01 877 2322 1.520 10000.000 0.000 0.000 0.000 0.000 -0.835
41 123.00 1500.01 848 2255 1.520 10000.000 0.000 0.000 0.000 0.000 -0.835
42 126.00 1500.01 852 2344 1.520 10000.000 0.000 0.000 0.000 0.000 -0.835
43 129.00 1500.01 854 2283 1.520 10000.000 0.000 0.000 0.000 0.000 -0.835
44 132.00 1500.01 890 2297 1.520 10000.000 0.000 0.000 0.000 0.000 -0.835
45 135.00 1500.01 861 2295 1.520 10000.000 0.000 0.000 0.000 0.000 -0.835
46 138.00 1500.01 914 2306 1.520 10000.000 0.000 0.000 0.000 0.000 -0.835
47 141.00 1500.01 909 2175 1.520 10000.000 0.000 0.000 0.000 0.000 -0.835
48 144.00 1500.01 919 2363 1.520 10000.000 0.000 0.000 0.000 0.000 -0.835
49 147.00 1500.01 864 2285 1.520 10000.000 0.000 0.000 0.000 0.000 -0.835
50 150.00 1500.01 824 2484 1.520 10000.000 0.000 0.000 0.000 0.000 -0.835
51 153.00 1500.01 865 2294 1.520 10000.000 0.000 0.000 0.000 0.000 -0.835
52 156.00 1500.01 892 2257 1.520 10000.000 0.000 0.000 0.000 0.000 -0.835
53 159.00 1500.01 863 2251 1.520 10000.000 0.000 0.000 0.000 0.000 -0.835
54 162.00 1500.01 925 2396 1.520 10000.000 0.000 0.000 0.000 0.000 -0.835
55 165.00 1500.01 859 2258 1.520 10000.000 0.000 0.000 0.000 0.000 -0.835
56 168.00 1500.01 896 2384 1.520 10000.000 0.000 0.000 0.000 0.000 -0.835
57 171.00 1500.01 885 2278 1.520 10000.000 0.000 0.000 0.000 0.000 -0.835
58 174.00 1500.01 882 2378 1.520 10000.000 0.000 0.000 0.000 0.000 -0.835
59 177.00 1500.01 921 2276 1.520 10000.000 0.000 0.000 0.000 0.000 -0.835
60 180.00 1500.01 907 2265 1.520 10000.000 0.000 0.000 0.000 0.000 -0.835
61 183.00 1500.01 856 2253 1.520 10000.000 0.000 0.000 0.000 0.000 -0.835
62 186.00 1500.01 911 2332 1.520 10000.000 0.000 0.000 0.000 0.000 -0.835
63 189.00 1500.01 884 2269 1.520 10000.000 0.000 0.000 0.000 0.000 -0.835
64 192.00 1500.01 967 2412 1.520 10000.000 0.000 0.000 0.000 0.000 -0.835
65 195.00 1500.01 892 2232 1.520 10000.000 0.000 0.000 0.000 0.000 -0.835
66 198.00 1500.01 979 2353 1.520 10000.000 0.000 0.000 0.000 0.000 -0.835
67 201.00 1500.01 933 2285 1.520 10000.000 0.000 0.000 0.000 0.000 -0.835
68 204.00 1500.01 936 2446 1.520 10000.000 0.000 0.000 0.000 0.000 -0.835
69 207.00 1500.01 921 2178 1.520 10000.000 0.000 0.000 0.000 0.000 -0.835
70 210.00 1500.01 869 2418 1.520 10000.000 0.000 0.000 0.000 0.000 -0.835
71 213.00 1500.01 879 2370 1.520 10000.000 0.000 0.000 0.000 0.000 -0.835
72 216.00 1500.01 860 2384 1.520 10000.000 0.000 0.000 0.000 0.000 -0.835
73 219.00 1500.01 916 2366 1.520 10000.000 0.000 0.000 0.000 0.000 -0.835
74 222.00 1500.01 915 2336 1.520 10000.000 0.000 0.000 0.000 0.000 -0.835
75 225.00 1500.01 880 2266 1.520 10000.000 0.000 0.000 0.000 0.000 -0.835
76 228.00 1500.01 929 2391 1.520 10000.000 0.000 0.000 0.000 0.000 -0.835
77 231.00 1500.01 850 2203 1.520 10000.000 0.000 0.000 0.000 0.000 -0.835
78 234.00 1500.01 858 2331 1.520 10000.000 0.000 0.000 0.000 0.000 -0.835
79 237.00 1500.01 928 2307 1.520 10000.000 0.000 0.000 0.000 0.000 -0.835
80 240.00 1500.01 852 2334 1.520 10000.000 0.000 0.000 0.000 0.000 -0.835
81 243.00 1500.01 881 2282 1.520 10000.000 0.000 0.000 0.000 0.000 -0.835
82 246.00 1500.01 864 2358 1.520 10000.000 0.000 0.000 0.000 0.000 -0.835
83 249.00 1500.01 918 2306 1.520 10000.000 0.000 0.000 0.000 0.000 -0.835
84 252.00 1500.01 900 2304 1.520 10000.000 0.000 0.000 0.000 0.000 -0.835
85 255.00 1500.01 885 2245 1.520 10000.000 0.000 0.000 0.000 0.000 -0.835
86 258.00 1500.01 882 2313 1.520 10000.000 0.000 0.000 0.000 0.000 -0.835
87 261.00 1500.01 902 2222 1.520 10000.000 0.000 0.000 0.000 0.000 -0.835
88 264.00 1500.01 922 2330 1.520 10000.000 0.000 0.000 0.000 0.000 -0.835
89 267.00 1500.01 844 2197 1.520 10000.000 0.000 0.000 0.000 0.000 -0.835
90 270.00 1500.01 856 2388 1.520 10000.000 0.000 0.000 0.000 0.000 -0.835
91 273.00 1500.01 899 2312 1.520 10000.000 0.000 0.000 0.000 0.000 -0.835
92 276.00 1500.01 904 2315 1.520 10000.000 0.000 0.000 0.000 0.000 -0.835
93 279.00 1500.01 860 2236 1.520 10000.000 0.000 0.000 0.000 0.000 -0.835
94 282.00 1500.01 941 2315 1.520 10000.000 0.000 0.000 0.000 0.000 -0.835
95 285.00 1500.01 894 2287 1.520 10000.000 0.000 0.000 0.000 0.000 -0.835
96 288.00 1500.01 905 2309 1.520 10000.000 0.000 0.000 0.000 0.000 -0.835
97 291.00 1500.01 877 2289 1.520 10000.000 0.000 0.000 0.000 0.000 -0.835
98 294.00 1500.01 861 2322 1.520 10000.000 0.000 0.000 0.000 0.000 -0.835
99 297.00 1500.01 922 2196 1.520 10000.000 0.000 0.000 0.000 0.000 -0.835
100 300.00 1500.01 873 2272 1.520 10000.000 0.000 0.000 0.000 0.000 -0.835
101 303.00 1500.01 897 2361 1.520 10000.000 0.000 0.000 0.000 0.000 -0.835
102 306.00 1500.01 905 2262 1.520 10000.000 0.000 0.000 0.000 0.000 -0.835
103 309.00 1500.01 866 2328 1.520 10000.000 0.000 0.000 0.000 0.000 -0.835
104 312.00 1500.01 866 2322 1.520 10000.000 0.000 0.000 0.000 0.000 -0.835
105 315.00 1500.01 899 2355 1.520 10000.000 0.000 0.000 0.000 0.000 -0.835
106 318.00 1500.01 863 2367 1.520 10000.000 0.000 0.000 0.000 0.000 -0.835
107 321.00 1500.01 878 2185 1.520 10000.000 0.000 0.000 0.000 0.000 -0.835
108 324.00 1500.01 938 2298 1.520 10000.000 0.000 0.000 0.000 0.000 -0.835
109 327.00 1500.01 858 2293 1.520 10000.000 0.000 0.000 0.000 0.000 -0.835
110 330.00 1500.01 914 2323 1.520 10000.000 0.000 0.000 0.000 0.000 -0.835
111 333.00 1500.01 920 2295 1.520 10000.000 0.000 0.000 0.000 0.000 -0.835
112 336.00 1500.01 879 2321 1.520 10000.000 0.000 0.000 0.000 0.000 -0.835
113 339.00 1500.01 858 2277 1.520 10000.000 0.000 0.000 0.000 0.000 -0.835
114 342.00 1500.01 953 2312 1.520 10000.000 0.000 0.000 0.000 0.000 -0.835
115 345.00 1500.01 860 2241 1.520 10000.000 0.000 0.000 0.000 0.000 -0.835
116 348.00 1500.01 873 2345 1.520 10000.000 0.000 0.000 0.000 0.000 -0.835
117 351.00 1500.01 873 2287 1.520 10000.000 0.000 0.000 0.000 0.000 -0.835
118 354.00 1500.01 869 2255 1.520 10000.000 0.000 0.000 0.000 0.000 -0.835
119 357.00 1500.01 896 2221 1.520 10000.000 0.000 0.000 0.000 0.000 -0.835
120 360.00 1500.01 913 2371 1.520 10000.000 0.000 0.000 0.000 0.000 -0.835
121 363.00 1500.01 877 2282 1.520 10000.000 0.000 0.000 0.000 0.000 -0.835
122 366.00 1500.01 937 2348 1.520 10000.000 0.000 0.000 0.000 0.000 -0.835
123 369.00 1500.01 847 2322 1.520 10000.000 0.000 0.000 0.000 0.000 -0.835
124 372.00 1500.01 896 2253 1.520 10000.000 0.000 0.000 0.000 0.000 -0.835
125 375.00 1500.01 905 2307 1.520 10000.000 0.000 0.000 0.000 0.000 -0.835
126 378.00 1500.01 889 2282 1.520 10000.000 0.000 0.000 0.000 0.000 -0.835
127 381.00 1500.01 837 2332 1.520 10000.000 0.000 0.000 0.000 0.000 -0.835
128 384.00 1500.01 920 2375 1.520 10000.000 0.000 0.000 0.000 0.000 -0.835
129 387.00 1500.01 845 2318 1.520 10000.000 0.000 0.000 0.000 0.000 -0.835
130 390.00 1500.01 928 2394 1.520 10000.000 0.000 0.000 0.000 0.000 -0.835
131 393.00 1500.01 875 2298 1.520 10000.000 0.000 0.000 0.000 0.000 -0.835
132 396.00 1500.01 916 2350 1.520 10000.000 0.000 0.000 0.000 0.000 -0.835
133 399.00 1500.01 865 2338 1.520 10000.000 0.000 0.000 0.000 0.000 -0.835
134 402.00 1500.01 831 2342 1.520 10000.000 0.000 0.000 0.000 0.000 -0.835
135 405.00 1500.01 873 2214 1.520 10000.000 0.000 0.000 0.000 0.000 -0.835
136 408.00 1500.01 865 2368 1.520 10000.000 0.000 0.000 0.000 0.000 -0.835
137 411.00 1500.01 866 2385 1.520 10000.000 0.000 0.000 0.000 0.000 -0.835
138 414.00 1500.01 925 2300 1.520 10000.000 0.000 0.000 0.000 0.000 -0.835
139 417.00 1500.01 840 2280 1.520 10000.000 0.000 0.000 0.000 0.000 -0.835
140 420.00 1500.01 939 2302 1.520 10000.000 0.000 0.000 0.000 0.000 -0.835
141 423.00 1500.01 837 2255 1.520 10000.000 0.000 0.000 0.000 0.000 -0.835
142 426.00 1500.01 812 2298 1.520 10000.000 0.000 0.000 0.000 0.000 -0.835
143 429.00 1500.01 863 2344 1.520 10000.000 0.000 0.000 0.000 0.000 -0.835
144 432.00 1500.01 908 2299 1.520 10000.000 0.000 0.000 0.000 0.000 -0.835
