# BinNR microsec tot-time (s)  O-Beam AUX Ampl_1(V) f_1(Hz) phase_1(deg) Ampl_2(V) f_2(Hz) phase_2(deg) chi(pos)
0 0.00 1500.02 439 1152 1.520 10000.000 0.000 0.000 0.000 0.000 -0.516
1 3.00 1500.02 879 2356 1.520 10000.000 0.000 0.000 0.000 0.000 -0.516
2 6.00 1500.02 891 2261 1.520 10000.000 0.000 0.000 0.000 0.000 -0.516
3 9.00 1500.02 880 2291 1.520 10000.000 0.000 0.000 0.000 0.000 -0.516
4 12.00 1500.02 915 2364 1.520 10000.000 0.000 0.000 0.000 0.000 -0.516
5 15.00 1500.02 896 2243 1.520 10000.000 0.000 0.000 0.000 0.000 -0.516
6 18.00 1500.02 872 2333 1.520 10000.000 0.000 0.000 0.000 0.000 -0.516
7 21.00 1500.02 825 2378 1.520 10000.000 0.000 0.000 0.000 0.000 -0.516
8 24.00 1500.02 888 2416 1.520 10000.000 0.000 0.000 0.000 0.000 -0.516
9 27.00 1500.02 831 2245 1.520 10000.000 0.000 0.000 0.000 0.000 -0.516
10 30.00 1500.02 862 2421 1.520 10000.000 0.000 0.000 0.000 0.000 -0.516
11 33.00 1500.02 873 2318 1.520 10000.000 0.000 0.000 0.000 0.000 -0.516
12 36.00 1500.02 880 2283 1.520 10000.000 0.000 0.000 0.000 0.000 -0.516
13 39.00 1500.02 870 2228 1.520 10000.000 0.000 0.000 0.000 0.000 -0.516
14 42.00 1500.02 861 2300 1.520 10000.000 0.000 0.000 0.000 0.000 -0.516
15 45.00 1500.02 857 2281 1.520 10000.000 0.000 0.000 0.000 0.000 -0.516
16 48.00 1500.02 943 2349 1.520 10000.000 0.000 0.000 0.000 0.000 -0.516
17 51.00 1500.02 907 2228 1.520 10000.000 0.000 0.000 0.000 0.000 -0.516
18 54.00 1500.02 923 2328 1.520 10000.000 0.000 0.000 0.000 0.000 -0.516
19 57.00 1500.02 881 2299 1.520 10000.000 0.000 0.000 0.000 0.000 -0.516
20 60.00 1500.02 957 2302 1.520 10000.000 0.000 0.000 0.000 0.000 -0.516
21 63.00 1500.02 863 2190 1.520 10000.000 0.000 0.000 0.000 0.000 -0.516
22 66.00 1500.02 913 2259 1.520 10000.000 0.000 0.000 0.000 0.000 -0.516
23 69.00 1500.02 851 2242 1.520 10000.000 0.000 0.000 0.000 0.000 -0.516
24 72.00 1500.02 925 2371 1.520 10000.000 0.000 0.000 0.000 0.000 -0.516
25 75.00 1500.02 880 2372 1.520 10000.000 0.000 0.000 0.000 0.000 -0.516
26 78.00 1500.02 881 2368 1.520 10000.000 0.000 0.000 0.000 0.000 -0.516
27 81.00 1500.02 834 2217 1.520 10000.000 0.000 0.000 0.000 0.000 -0.516
28 84.00 1500.02 897 2266 1.520 10000.000 0.000 0.000 0.000 0.000 -0.516
29 87.00 1500.02 921 2301 1.520 10000.000 0.000 0.000 0.000 0.000 -0.516
30 90.00 1500.02 862 2255 1.520 10000.000 0.000 0.000 0.000 0.000 -0.516
31 93.00 1500.02 854 2235 1.520 10000.000 0.000 0.000 0.000 0.000 -0.516
32 96.00 1500.02 912 2250 1.520 10000.000 0.000 0.000 0.000 0.000 -0.516
33 99.00 1500.02 887 2264 1.520 10000.000 0.000 0.000 0.000 0.000 -0.516
34 102.00 1500.02 888 2264 1.520 10000.000 0.000 0.000 0.000 0.000 -0.516
35 105.00 1500.02 871 2286 1.520 10000.000 0.000 0.000 0.000 0.000 -0.516
36 108.00 1500.02 869 2373 1.520 10000.000 0.000 0.000 0.000 0.000 -0.516
37 111.00 1500.02 885 2252 1.520 10000.000 0.000 0.000 0.000 0.000 -0.516
38 114.00 1500.02 880 2301 1.520 10000.000 0.000 0.000 0.000 0.000 -0.516
39 117.00 1500.02 912 2274 1.520 10000.000 0.000 0.000 0.000 0.000 -0.516
40 120.00 1500.02 915 2354 1.520 10000.000 0.000 0.000 0.000 0.000 -0.516
41 123.00 1500.02 857 2214 1.520 10000.000 0.000 0.000 0.000 0.000 -0.516
42 126.00 1500.02 903 2302 1.520 10000.000 0.000 0.000 0.000 0.000 -0.516
43 129.00 1500.02 877 2215 1.520 10000.000 0.000 0.000 0.000 0.000 -0.516
44 132.00 1500.02 843 2408 1.520 10000.000 0.000 0.000 0.000 0.000 -0.516
45 135.00 1500.02 884 2204 1.520 10000.000 0.000 0.000 0.000 0.000 -0.516
46 138.00 1500.02 947 2339 1.520 10000.000 0.000 0.000 0.000 0.000 -0.516
47 141.00 1500.02 857 2219 1.520 10000.000 0.000 0.000 0.000 0.000 -0.516
48 144.00 1500.02 905 2290 1.520 10000.000 0.000 0.000 0.000 0.000 -0.516
49 147.00 1500.02 872 2225 1.520 10000.000 0.000 0.000 0.000 0.000 -0.516
50 150.00 1500.02 891 2238 1.520 10000.000 0.000 0.000 0.000 0.000 -0.516
51 153.00 1500.02 864 2245 1.520 10000.000 0.000 0.000 0.000 0.000 -0.516
52 156.00 1500.02 884 2319 1.520 10000.000 0.000 0.000 0.000 0.000 -0.516
53 159.00 1500.02 821 2266 1.520 10000.000 0.000 0.000 0.000 0.000 -0.516
54 162.00 1500.02 889 2221 1.520 10000.000 0.000 0.000 0.000 0.000 -0.516
55 165.00 1500.02 865 2294 1.520 10000.000 0.000 0.000 0.000 0.000 -0.516
56 168.00 1500.02 937 2383 1.520 10000.000 0.000 0.000 0.000 0.000 -0.516
57 171.00 1500.02 835 2284 1.520 10000.000 0.000 0.000 0.000 0.000 -0.516
58 174.00 1500.02 906 2295 1.520 10000.000 0.000 0.000 0.000 0.000 -0.516
59 177.00 1500.02 868 2321 1.520 10000.000 0.000 0.000 0.000 0.000 -0.516
60 180.00 1500.02 889 2267 1.520 10000.000 0.000 0.000 0.000 0.000 -0.516
61 183.00 1500.02 858 2262 1.520 10000.000 0.000 0.000 0.000 0.000 -0.516
62 186.00 1500.02 862 2337 1.520 10000.000 0.000 0.000 0.000 0.000 -0.516
63 189.00 1500.02 854 2276 1.520 10000.000 0.000 0.000 0.000 0.000 -0.516
64 192.00 1500.02 889 2234 1.520 10000.000 0.000 0.000 0.000 0.000 -0.516
65 195.00 1500.02 921 2230 1.520 10000.000 0.000 0.000 0.000 0.000 -0.516
66 198.00 1500.02 867 2364 1.520 10000.000 0.000 0.000 0.000 0.000 -0.516
67 201.00 1500.02 888 2361 1.520 10000.000 0.000 0.000 0.000 0.000 -0.516
68 204.00 1500.02 904 2177 1.520 10000.000 0.000 0.000 0.000 0.000 -0.516
69 207.00 1500.02 807 2206 1.520 10000.000 0.000 0.000 0.000 0.000 -0.516
70 210.00 1500.02 880 2261 1.520 10000.000 0.000 0.000 0.000 0.000 -0.516
71 213.00 1500.02 844 2170 1.520 10000.000 0.000 0.000 0.000 0.000 -0.516
72 216.00 1500.02 862 2320 1.520 10000.000 0.000 0.000 0.000 0.000 -0.516
73 219.00 1500.02 896 2282 1.520 10000.000 0.000 0.000 0.000 0.000 -0.516
74 222.00 1500.02 848 2290 1.520 10000.000 0.000 0.000 0.000 0.000 -0.516
75 225.00 1500.02 879 2265 1.520 10000.000 0.000 0.000 0.000 0.000 -0.516
76 228.00 1500.02 867 2312 1.520 10000.000 0.000 0.000 0.000 0.000 -0.516
77 231.00 1500.02 889 2232 1.520 10000.000 0.000 0.000 0.000 0.000 -0.516
78 234.00 1500.02 944 2342 1.520 10000.000 0.000 0.000 0.000 0.000 -0.516
79 237.00 1500.02 934 2312 1.520 10000.000 0.000 0.000 0.000 0.000 -0.516
80 240.00 1500.02 899 2354 1.520 10000.000 0.000 0.000 0.000 0.000 -0.516
81 243.00 1500.02 912 2231 1.520 10000.000 0.000 0.000 0.000 0.000 -0.516
82 246.00 1500.02 878 2337 1.520 10000.000 0.000 0.000 0.000 0.000 -0.516
83 249.00 1500.02 890 2284 1.520 10000.000 0.000 0.000 0.000 0.000 -0.516
84 252.00 1500.02 978 2313 1.520 10000.000 0.000 0.000 0.000 0.000 -0.516
85 255.00 1500.02 844 2233 1.520 10000.000 0.000 0.000 0.000 0.000 -0.516
86 258.00 1500.02 884 2269 1.520 10000.000 0.000 0.000 0.000 0.000 -0.516
87 261.00 1500.02 850 2212 1.520 10000.000 0.000 0.000 0.000 0.000 -0.516
88 264.00 1500.02 869 2280 1.520 10000.000 0.000 0.000 0.000 0.000 -0.516
89 267.00 1500.02 808 2268 1.520 10000.000 0.000 0.000 0.000 0.000 -0.516
90 270.00 1500.02 855 2301 1.520 10000.000 0.000 0.000 0.000 0.000 -0.516
91 273.00 1500.02 888 2155 1.520 10000.000 0.000 0.000 0.000 0.000 -0.516
92 276.00 1500.02 859 2407 1.520 10000.000 0.000 0.000 0.000 0.000 -0.516
93 279.00 1500.02 835 2225 1.520 10000.000 0.000 0.000 0.000 0.000 -0.516
94 282.00 1500.02 877 2312 1.520 10000.000 0.000 0.000 0.000 0.000 -0.516
95 285.00 1500.02 904 2212 1.520 10000.000 0.000 0.000 0.000 0.000 -0.516
96 288.00 1500.02 916 2310 1.520 10000.000 0.000 0.000 0.000 0.000 -0.516
97 291.00 1500.02 870 2223 1.520 10000.000 0.000 0.000 0.000 0.000 -0.516
98 294.00 1500.02 916 2312 1.520 10000.000 0.000 0.000 0.000 0.000 -0.516
99 297.00 1500.02 888 2208 1.520 10000.000 0.000 0.000 0.000 0.000 -0.516
100 300.00 1500.02 942 2449 1.520 10000.000 0.000 0.000 0.000 0.000 -0.516
101 303.00 1500.02 886 2233 1.520 10000.000 0.000 0.000 0.000 0.000 -0.516
102 306.00 1500.02 908 2307 1.520 10000.000 0.000 0.000 0.000 0.000 -0.516
103 309.00 1500.02 871 2316 1.520 10000.000 0.000 0.000 0.000 0.000 -0.516
104 312.00 1500.02 885 2323 1.520 10000.000 0.000 0.000 0.000 0.000 -0.516
105 315.00 1500.02 893 2269 1.520 10000.000 0.000 0.000 0.000 0.000 -0.516
106 318.00 1500.02 904 2265 1.520 10000.000 0.000 0.000 0.000 0.000 -0.516
107 321.00 1500.02 857 2200 1.520 10000.000 0.000 0.000 0.000 0.000 -0.516
108 324.00 1500.02 869 2339 1.520 10000.000 0.000 0.000 0.000 0.000 -0.516
109 327.00 1500.02 903 2298 1.520 10000.000 0.000 0.000 0.000 0.000 -0.516
110 330.00 1500.02 874 2330 1.520 10000.000 0.000 0.000 0.000 0.000 -0.516
111 333.00 1500.02 881 2325 1.520 10000.000 0.000 0.000 0.000 0.000 -0.516
112 336.00 1500.02 863 2268 1.520 10000.000 0.000 0.000 0.000 0.000 -0.516
113 339.00 1500.02 916 2288 1.520 10000.000 0.000 0.000 0.000 0.000 -0.516
114 342.00 1500.02 891 2363 1.520 10000.000 0.000 0.000 0.000 0.000 -0.516
115 345.00 1500.02 895 2342 1.520 10000.000 0.000 0.000 0.000 0.000 -0.516
116 348.00 1500.02 885 2389 1.520 10000.000 0.000 0.000 0.000 0.000 -0.516
117 351.00 1500.02 854 2311 1.520 10000.000 0.000 0.000 0.000 0.000 -0.516
118 354.00 1500.02 907 2397 1.520 10000.000 0.000 0.000 0.000 0.000 -0.516
119 357.00 1500.02 841 2340 1.520 10000.000 0.000 0.000 0.000 0.000 -0.516
120 360.00 1500.02 838 2361 1.520 10000.000 0.000 0.000 0.000 0.000 -0.516
121 363.00 1500.02 905 2340 1.520 10000.000 0.000 0.000 0.000 0.000 -0.516
122 366.00 1500.02 903 2335 1.520 10000.000 0.000 0.000 0.000 0.000 -0.516
123 369.00 1500.02 863 2328 1.520 10000.000 0.000 0.000 0.000 0.000 -0.516
124 372.00 1500.02 901 2263 1.520 10000.000 0.000 0.000 0.000 0.000 -0.516
125 375.00 1500.02 823 2340 1.520 10000.000 0.000 0.000 0.000 0.000 -0.516
126 378.00 1500.02 856 2370 1.520 10000.000 0.000 0.000 0.000 0.000 -0.516
127 381.00 1500.02 889 2309 1.520 10000.000 0.000 0.000 0.000 0.000 -0.516
128 384.00 1500.02 980 2325 1.520 10000.000 0.000 0.000 0.000 0.000 -0.516
129 387.00 1500.02 844 2324 1.520 10000.000 0.000 0.000 0.000 0.000 -0.516
130 390.00 1500.02 906 2264 1.520 10000.000 0.000 0.000 0.000 0.000 -0.516
131 393.00 1500.02 834 2191 1.520 10000.000 0.000 0.000 0.000 0.000 -0.516
132 396.00 1500.02 860 2300 1.520 10000.000 0.000 0.000 0.000 0.000 -0.516
133 399.00 1500.02 892 2180 1.520 10000.000 0.000 0.000 0.000 0.000 -0.516
134 402.00 1500.02 889 2325 1.520 10000.000 0.000 0.000 0.000 0.000 -0.516
135 405.00 1500.02 871 2289 1.520 10000.000 0.000 0.000 0.000 0.000 -0.516
136 408.00 1500.02 814 2238 1.520 10000.000 0.000 0.000 0.000 0.000 -0.516
137 411.00 1500.02 828 2290 1.520 10000.000 0.000 0.000 0.000 0.000 -0.516
138 414.00 1500.02 910 2314 1.520 10000.000 0.000 0.000 0.000 0.000 -0.516
139 417.00 1500.02 843 2189 1.520 10000.000 0.000 0.000 0.000 0.000 -0.516
140 420.00 1500.02 869 2297 1.520 10000.000 0.000 0.000 0.000 0.000 -0.516
141 423.00 1500.02 883 2190 1.520 10000.000 0.000 0.000 0.000 0.000 -0.516
142 426.00 1500.02 883 2296 1.520 10000.000 0.000 0.000 0.000 0.000 -0.516
143 429.00 1500.02 907 2244 1.520 10000.000 0.000 0.000 0.000 0.000 -0.516
144 432.00 1500.02 887 2311 1.520 10000.000 0.000 0.000 0.000 0.000 -0.516
