# BinNR microsec tot-time (s)  O-Beam H-beam AUX Ampl(V) f(Hz) phase(deg) chi(pos)
0 0.00 1200.00 174 1112 3 5.313 2000.000 0.000 1.373
1 25.00 1200.00 201 1041 3 5.313 2000.000 0.000 1.373
2 50.00 1200.00 296 905 2 5.313 2000.000 0.000 1.373
3 75.00 1200.00 214 731 3 5.313 2000.000 0.000 1.373
4 100.00 1200.00 172 580 4 5.313 2000.000 0.000 1.373
5 125.00 1200.00 107 572 3 5.313 2000.000 0.000 1.373
6 150.00 1200.00 165 566 6 5.313 2000.000 0.000 1.373
7 175.00 1200.00 330 552 2 5.313 2000.000 0.000 1.373
8 200.00 1200.00 443 616 5 5.313 2000.000 0.000 1.373
9 225.00 1200.00 618 559 3 5.313 2000.000 0.000 1.373
10 250.00 1200.00 611 535 2 5.313 2000.000 0.000 1.373
11 275.00 1200.00 657 563 4 5.313 2000.000 0.000 1.373
12 300.00 1200.00 540 796 1 5.313 2000.000 0.000 1.373
13 325.00 1200.00 580 922 3 5.313 2000.000 0.000 1.373
14 350.00 1200.00 593 1012 2 5.313 2000.000 0.000 1.373
15 375.00 1200.00 640 1066 4 5.313 2000.000 0.000 1.373
16 400.00 1200.00 542 916 3 5.313 2000.000 0.000 1.373
17 425.00 1200.00 320 929 1 5.313 2000.000 0.000 1.373
18 450.00 1200.00 185 936 2 5.313 2000.000 0.000 1.373
19 475.00 1200.00 114 967 1 5.313 2000.000 0.000 1.373
20 500.00 1200.00 177 1043 5 5.313 2000.000 0.000 1.373
21 525.00 1200.00 238 1029 6 5.313 2000.000 0.000 1.373
22 550.00 1200.00 267 927 5 5.313 2000.000 0.000 1.373
23 575.00 1200.00 220 748 1 5.313 2000.000 0.000 1.373
24 600.00 1200.00 179 662 3 5.313 2000.000 0.000 1.373
25 625.00 1200.00 132 577 3 5.313 2000.000 0.000 1.373
26 650.00 1200.00 161 543 1 5.313 2000.000 0.000 1.373
27 675.00 1200.00 324 569 0 5.313 2000.000 0.000 1.373
28 700.00 1200.00 493 579 2 5.313 2000.000 0.000 1.373
29 725.00 1200.00 601 576 2 5.313 2000.000 0.000 1.373
30 750.00 1200.00 633 516 2 5.313 2000.000 0.000 1.373
31 775.00 1200.00 644 615 4 5.313 2000.000 0.000 1.373
32 800.00 1200.00 626 769 1 5.313 2000.000 0.000 1.373
33 825.00 1200.00 582 972 3 5.313 2000.000 0.000 1.373
34 850.00 1200.00 627 1095 2 5.313 2000.000 0.000 1.373
35 875.00 1200.00 608 1018 1 5.313 2000.000 0.000 1.373
36 900.00 1200.00 533 967 1 5.313 2000.000 0.000 1.373
37 925.00 1200.00 315 922 3 5.313 2000.000 0.000 1.373
38 950.00 1200.00 180 908 1 5.313 2000.000 0.000 1.373
39 975.00 1200.00 122 934 5 5.313 2000.000 0.000 1.373
