# BinNR microsec tot-time (s)  O-Beam H-beam AUX Ampl(V) f(Hz) phase(deg) chi(pos)
0 0.00 1200.00 559 599 4 5.313 2000.000 0.000 0.791
1 25.00 1200.00 639 770 7 5.313 2000.000 0.000 0.791
2 50.00 1200.00 618 957 1 5.313 2000.000 0.000 0.791
3 75.00 1200.00 604 983 5 5.313 2000.000 0.000 0.791
4 100.00 1200.00 566 1047 3 5.313 2000.000 0.000 0.791
5 125.00 1200.00 464 937 5 5.313 2000.000 0.000 0.791
6 150.00 1200.00 329 792 1 5.313 2000.000 0.000 0.791
7 175.00 1200.00 169 700 1 5.313 2000.000 0.000 0.791
8 200.00 1200.00 138 740 2 5.313 2000.000 0.000 0.791
9 225.00 1200.00 208 767 2 5.313 2000.000 0.000 0.791
10 250.00 1200.00 319 922 1 5.313 2000.000 0.000 0.791
11 275.00 1200.00 352 1023 6 5.313 2000.000 0.000 0.791
12 300.00 1200.00 471 981 0 5.313 2000.000 0.000 0.791
13 325.00 1200.00 388 948 2 5.313 2000.000 0.000 0.791
14 350.00 1200.00 301 756 4 5.313 2000.000 0.000 0.791
15 375.00 1200.00 211 621 0 5.313 2000.000 0.000 0.791
16 400.00 1200.00 137 570 5 5.313 2000.000 0.000 0.791
17 425.00 1200.00 161 556 1 5.313 2000.000 0.000 0.791
18 450.00 1200.00 303 528 1 5.313 2000.000 0.000 0.791
19 475.00 1200.00 479 541 0 5.313 2000.000 0.000 0.791
20 500.00 1200.00 596 660 1 5.313 2000.000 0.000 0.791
21 525.00 1200.00 611 814 2 5.313 2000.000 0.000 0.791
22 550.00 1200.00 631 941 3 5.313 2000.000 0.000 0.791
23 575.00 1200.00 617 1032 6 5.313 2000.000 0.000 0.791
24 600.00 1200.00 578 1067 3 5.313 2000.000 0.000 0.791
25 625.00 1200.00 476 926 4 5.313 2000.000 0.000 0.791
26 650.00 1200.00 317 741 2 5.313 2000.000 0.000 0.791
27 675.00 1200.00 189 747 2 5.313 2000.000 0.000 0.791
28 700.00 1200.00 149 754 3 5.313 2000.000 0.000 0.791
29 725.00 1200.00 215 784 2 5.313 2000.000 0.000 0.791
30 750.00 1200.00 312 934 7 5.313 2000.000 0.000 0.791
31 775.00 1200.00 390 1057 3 5.313 2000.000 0.000 0.791
32 800.00 1200.00 451 1040 4 5.313 2000.000 0.000 0.791
33 825.00 1200.00 428 924 0 5.313 2000.000 0.000 0.791
34 850.00 1200.00 322 762 6 5.313 2000.000 0.000 0.791
35 875.00 1200.00 223 628 5 5.313 2000.000 0.000 0.791
36 900.00 1200.00 117 559 2 5.313 2000.000 0.000 0.791
37 925.00 1200.00 157 563 2 5.313 2000.000 0.000 0.791
38 950.00 1200.00 284 536 5 5.313 2000.000 0.000 0.791
39 975.00 1200.00 479 526 2 5.313 2000.000 0.000 0.791
