# BinNR microsec tot-time (s)  O-Beam AUX Ampl_1(V) f_1(Hz) phase_1(deg) Ampl_2(V) f_2(Hz) phase_2(deg) chi(pos)
0 0.00 1500.00 225 334 0.740 10000.000 0.000 0.000 0.000 0.000 -1.329
1 3.00 1500.00 471 656 0.740 10000.000 0.000 0.000 0.000 0.000 -1.329
2 6.00 1500.00 488 662 0.740 10000.000 0.000 0.000 0.000 0.000 -1.329
3 9.00 1500.00 434 670 0.740 10000.000 0.000 0.000 0.000 0.000 -1.329
4 12.00 1500.00 434 668 0.740 10000.000 0.000 0.000 0.000 0.000 -1.329
5 15.00 1500.00 452 622 0.740 10000.000 0.000 0.000 0.000 0.000 -1.329
6 18.00 1500.00 494 654 0.740 10000.000 0.000 0.000 0.000 0.000 -1.329
7 21.00 1500.00 481 619 0.740 10000.000 0.000 0.000 0.000 0.000 -1.329
8 24.00 1500.00 403 638 0.740 10000.000 0.000 0.000 0.000 0.000 -1.329
9 27.00 1500.00 439 617 0.740 10000.000 0.000 0.000 0.000 0.000 -1.329
10 30.00 1500.00 504 587 0.740 10000.000 0.000 0.000 0.000 0.000 -1.329
11 33.00 1500.00 496 583 0.740 10000.000 0.000 0.000 0.000 0.000 -1.329
12 36.00 1500.00 459 593 0.740 10000.000 0.000 0.000 0.000 0.000 -1.329
13 39.00 1500.00 466 564 0.740 10000.000 0.000 0.000 0.000 0.000 -1.329
14 42.00 1500.00 485 591 0.740 10000.000 0.000 0.000 0.000 0.000 -1.329
15 45.00 1500.00 416 586 0.740 10000.000 0.000 0.000 0.000 0.000 -1.329
16 48.00 1500.00 478 673 0.740 10000.000 0.000 0.000 0.000 0.000 -1.329
17 51.00 1500.00 473 627 0.740 10000.000 0.000 0.000 0.000 0.000 -1.329
18 54.00 1500.00 474 664 0.740 10000.000 0.000 0.000 0.000 0.000 -1.329
19 57.00 1500.00 495 598 0.740 10000.000 0.000 0.000 0.000 0.000 -1.329
20 60.00 1500.00 491 703 0.740 10000.000 0.000 0.000 0.000 0.000 -1.329
21 63.00 1500.00 447 612 0.740 10000.000 0.000 0.000 0.000 0.000 -1.329
22 66.00 1500.00 481 648 0.740 10000.000 0.000 0.000 0.000 0.000 -1.329
23 69.00 1500.00 510 584 0.740 10000.000 0.000 0.000 0.000 0.000 -1.329
24 72.00 1500.00 511 625 0.740 10000.000 0.000 0.000 0.000 0.000 -1.329
25 75.00 1500.00 467 605 0.740 10000.000 0.000 0.000 0.000 0.000 -1.329
26 78.00 1500.00 502 562 0.740 10000.000 0.000 0.000 0.000 0.000 -1.329
27 81.00 1500.00 490 590 0.740 10000.000 0.000 0.000 0.000 0.000 -1.329
28 84.00 1500.00 513 577 0.740 10000.000 0.000 0.000 0.000 0.000 -1.329
29 87.00 1500.00 467 579 0.740 10000.000 0.000 0.000 0.000 0.000 -1.329
30 90.00 1500.00 467 637 0.740 10000.000 0.000 0.000 0.000 0.000 -1.329
31 93.00 1500.00 486 662 0.740 10000.000 0.000 0.000 0.000 0.000 -1.329
32 96.00 1500.00 513 671 0.740 10000.000 0.000 0.000 0.000 0.000 -1.329
33 99.00 1500.00 475 645 0.740 10000.000 0.000 0.000 0.000 0.000 -1.329
34 102.00 1500.00 467 653 0.740 10000.000 0.000 0.000 0.000 0.000 -1.329
35 105.00 1500.00 470 641 0.740 10000.000 0.000 0.000 0.000 0.000 -1.329
36 108.00 1500.00 476 596 0.740 10000.000 0.000 0.000 0.000 0.000 -1.329
37 111.00 1500.00 464 600 0.740 10000.000 0.000 0.000 0.000 0.000 -1.329
38 114.00 1500.00 434 628 0.740 10000.000 0.000 0.000 0.000 0.000 -1.329
39 117.00 1500.00 452 537 0.740 10000.000 0.000 0.000 0.000 0.000 -1.329
40 120.00 1500.00 477 555 0.740 10000.000 0.000 0.000 0.000 0.000 -1.329
41 123.00 1500.00 464 537 0.740 10000.000 0.000 0.000 0.000 0.000 -1.329
42 126.00 1500.00 479 608 0.740 10000.000 0.000 0.000 0.000 0.000 -1.329
43 129.00 1500.00 445 620 0.740 10000.000 0.000 0.000 0.000 0.000 -1.329
44 132.00 1500.00 530 619 0.740 10000.000 0.000 0.000 0.000 0.000 -1.329
45 135.00 1500.00 487 689 0.740 10000.000 0.000 0.000 0.000 0.000 -1.329
46 138.00 1500.00 472 666 0.740 10000.000 0.000 0.000 0.000 0.000 -1.329
47 141.00 1500.00 451 676 0.740 10000.000 0.000 0.000 0.000 0.000 -1.329
48 144.00 1500.00 485 732 0.740 10000.000 0.000 0.000 0.000 0.000 -1.329
49 147.00 1500.00 423 726 0.740 10000.000 0.000 0.000 0.000 0.000 -1.329
50 150.00 1500.00 499 722 0.740 10000.000 0.000 0.000 0.000 0.000 -1.329
51 153.00 1500.00 428 705 0.740 10000.000 0.000 0.000 0.000 0.000 -1.329
52 156.00 1500.00 500 681 0.740 10000.000 0.000 0.000 0.000 0.000 -1.329
53 159.00 1500.00 466 646 0.740 10000.000 0.000 0.000 0.000 0.000 -1.329
54 162.00 1500.00 475 671 0.740 10000.000 0.000 0.000 0.000 0.000 -1.329
55 165.00 1500.00 441 583 0.740 10000.000 0.000 0.000 0.000 0.000 -1.329
56 168.00 1500.00 446 658 0.740 10000.000 0.000 0.000 0.000 0.000 -1.329
57 171.00 1500.00 502 576 0.740 10000.000 0.000 0.000 0.000 0.000 -1.329
58 174.00 1500.00 471 579 0.740 10000.000 0.000 0.000 0.000 0.000 -1.329
59 177.00 1500.00 507 584 0.740 10000.000 0.000 0.000 0.000 0.000 -1.329
60 180.00 1500.00 475 541 0.740 10000.000 0.000 0.000 0.000 0.000 -1.329
61 183.00 1500.00 473 603 0.740 10000.000 0.000 0.000 0.000 0.000 -1.329
62 186.00 1500.00 481 632 0.740 10000.000 0.000 0.000 0.000 0.000 -1.329
63 189.00 1500.00 446 598 0.740 10000.000 0.000 0.000 0.000 0.000 -1.329
64 192.00 1500.00 453 593 0.740 10000.000 0.000 0.000 0.000 0.000 -1.329
65 195.00 1500.00 490 643 0.740 10000.000 0.000 0.000 0.000 0.000 -1.329
66 198.00 1500.00 515 682 0.740 10000.000 0.000 0.000 0.000 0.000 -1.329
67 201.00 1500.00 469 619 0.740 10000.000 0.000 0.000 0.000 0.000 -1.329
68 204.00 1500.00 446 644 0.740 10000.000 0.000 0.000 0.000 0.000 -1.329
69 207.00 1500.00 465 603 0.740 10000.000 0.000 0.000 0.000 0.000 -1.329
70 210.00 1500.00 478 642 0.740 10000.000 0.000 0.000 0.000 0.000 -1.329
71 213.00 1500.00 467 576 0.740 10000.000 0.000 0.000 0.000 0.000 -1.329
72 216.00 1500.00 462 590 0.740 10000.000 0.000 0.000 0.000 0.000 -1.329
73 219.00 1500.00 466 556 0.740 10000.000 0.000 0.000 0.000 0.000 -1.329
74 222.00 1500.00 458 561 0.740 10000.000 0.000 0.000 0.000 0.000 -1.329
75 225.00 1500.00 481 565 0.740 10000.000 0.000 0.000 0.000 0.000 -1.329
76 228.00 1500.00 516 614 0.740 10000.000 0.000 0.000 0.000 0.000 -1.329
77 231.00 1500.00 462 623 0.740 10000.000 0.000 0.000 0.000 0.000 -1.329
78 234.00 1500.00 465 681 0.740 10000.000 0.000 0.000 0.000 0.000 -1.329
79 237.00 1500.00 447 639 0.740 10000.000 0.000 0.000 0.000 0.000 -1.329
80 240.00 1500.00 487 688 0.740 10000.000 0.000 0.000 0.000 0.000 -1.329
81 243.00 1500.00 481 733 0.740 10000.000 0.000 0.000 0.000 0.000 -1.329
82 246.00 1500.00 449 689 0.740 10000.000 0.000 0.000 0.000 0.000 -1.329
83 249.00 1500.00 444 745 0.740 10000.000 0.000 0.000 0.000 0.000 -1.329
84 252.00 1500.00 489 679 0.740 10000.000 0.000 0.000 0.000 0.000 -1.329
85 255.00 1500.00 425 682 0.740 10000.000 0.000 0.000 0.000 0.000 -1.329
86 258.00 1500.00 493 658 0.740 10000.000 0.000 0.000 0.000 0.000 -1.329
87 261.00 1500.00 478 642 0.740 10000.000 0.000 0.000 0.000 0.000 -1.329
88 264.00 1500.00 455 658 0.740 10000.000 0.000 0.000 0.000 0.000 -1.329
89 267.00 1500.00 411 621 0.740 10000.000 0.000 0.000 0.000 0.000 -1.329
90 270.00 1500.00 493 609 0.740 10000.000 0.000 0.000 0.000 0.000 -1.329
91 273.00 1500.00 425 568 0.740 10000.000 0.000 0.000 0.000 0.000 -1.329
92 276.00 1500.00 482 592 0.740 10000.000 0.000 0.000 0.000 0.000 -1.329
93 279.00 1500.00 449 615 0.740 10000.000 0.000 0.000 0.000 0.000 -1.329
94 282.00 1500.00 463 601 0.740 10000.000 0.000 0.000 0.000 0.000 -1.329
95 285.00 1500.00 488 601 0.740 10000.000 0.000 0.000 0.000 0.000 -1.329
96 288.00 1500.00 502 631 0.740 10000.000 0.000 0.000 0.000 0.000 -1.329
97 291.00 1500.00 477 638 0.740 10000.000 0.000 0.000 0.000 0.000 -1.329
98 294.00 1500.00 459 606 0.740 10000.000 0.000 0.000 0.000 0.000 -1.329
99 297.00 1500.00 390 648 0.740 10000.000 0.000 0.000 0.000 0.000 -1.329
100 300.00 1500.00 464 599 0.740 10000.000 0.000 0.000 0.000 0.000 -1.329
101 303.00 1500.00 483 612 0.740 10000.000 0.000 0.000 0.000 0.000 -1.329
102 306.00 1500.00 480 653 0.740 10000.000 0.000 0.000 0.000 0.000 -1.329
103 309.00 1500.00 481 581 0.740 10000.000 0.000 0.000 0.000 0.000 -1.329
104 312.00 1500.00 451 658 0.740 10000.000 0.000 0.000 0.000 0.000 -1.329
105 315.00 1500.00 480 553 0.740 10000.000 0.000 0.000 0.000 0.000 -1.329
106 318.00 1500.00 449 569 0.740 10000.000 0.000 0.000 0.000 0.000 -1.329
107 321.00 1500.00 471 550 0.740 10000.000 0.000 0.000 0.000 0.000 -1.329
108 324.00 1500.00 468 583 0.740 10000.000 0.000 0.000 0.000 0.000 -1.329
109 327.00 1500.00 465 569 0.740 10000.000 0.000 0.000 0.000 0.000 -1.329
110 330.00 1500.00 481 625 0.740 10000.000 0.000 0.000 0.000 0.000 -1.329
111 333.00 1500.00 469 647 0.740 10000.000 0.000 0.000 0.000 0.000 -1.329
112 336.00 1500.00 477 651 0.740 10000.000 0.000 0.000 0.000 0.000 -1.329
113 339.00 1500.00 453 688 0.740 10000.000 0.000 0.000 0.000 0.000 -1.329
114 342.00 1500.00 512 697 0.740 10000.000 0.000 0.000 0.000 0.000 -1.329
115 345.00 1500.00 481 663 0.740 10000.000 0.000 0.000 0.000 0.000 -1.329
116 348.00 1500.00 424 697 0.740 10000.000 0.000 0.000 0.000 0.000 -1.329
117 351.00 1500.00 485 692 0.740 10000.000 0.000 0.000 0.000 0.000 -1.329
118 354.00 1500.00 454 676 0.740 10000.000 0.000 0.000 0.000 0.000 -1.329
119 357.00 1500.00 487 701 0.740 10000.000 0.000 0.000 0.000 0.000 -1.329
120 360.00 1500.00 427 652 0.740 10000.000 0.000 0.000 0.000 0.000 -1.329
121 363.00 1500.00 435 572 0.740 10000.000 0.000 0.000 0.000 0.000 -1.329
122 366.00 1500.00 468 617 0.740 10000.000 0.000 0.000 0.000 0.000 -1.329
123 369.00 1500.00 483 614 0.740 10000.000 0.000 0.000 0.000 0.000 -1.329
124 372.00 1500.00 483 646 0.740 10000.000 0.000 0.000 0.000 0.000 -1.329
125 375.00 1500.00 451 580 0.740 10000.000 0.000 0.000 0.000 0.000 -1.329
126 378.00 1500.00 491 621 0.740 10000.000 0.000 0.000 0.000 0.000 -1.329
127 381.00 1500.00 445 577 0.740 10000.000 0.000 0.000 0.000 0.000 -1.329
128 384.00 1500.00 492 599 0.740 10000.000 0.000 0.000 0.000 0.000 -1.329
129 387.00 1500.00 456 632 0.740 10000.000 0.000 0.000 0.000 0.000 -1.329
130 390.00 1500.00 478 636 0.740 10000.000 0.000 0.000 0.000 0.000 -1.329
131 393.00 1500.00 435 629 0.740 10000.000 0.000 0.000 0.000 0.000 -1.329
132 396.00 1500.00 490 649 0.740 10000.000 0.000 0.000 0.000 0.000 -1.329
133 399.00 1500.00 472 667 0.740 10000.000 0.000 0.000 0.000 0.000 -1.329
134 402.00 1500.00 498 540 0.740 10000.000 0.000 0.000 0.000 0.000 -1.329
135 405.00 1500.00 467 578 0.740 10000.000 0.000 0.000 0.000 0.000 -1.329
136 408.00 1500.00 506 648 0.740 10000.000 0.000 0.000 0.000 0.000 -1.329
137 411.00 1500.00 492 575 0.740 10000.000 0.000 0.000 0.000 0.000 -1.329
138 414.00 1500.00 475 538 0.740 10000.000 0.000 0.000 0.000 0.000 -1.329
139 417.00 1500.00 497 576 0.740 10000.000 0.000 0.000 0.000 0.000 -1.329
140 420.00 1500.00 507 578 0.740 10000.000 0.000 0.000 0.000 0.000 -1.329
141 423.00 1500.00 465 582 0.740 10000.000 0.000 0.000 0.000 0.000 -1.329
142 426.00 1500.00 509 589 0.740 10000.000 0.000 0.000 0.000 0.000 -1.329
143 429.00 1500.00 473 630 0.740 10000.000 0.000 0.000 0.000 0.000 -1.329
144 432.00 1500.00 478 640 0.740 10000.000 0.000 0.000 0.000 0.000 -1.329
