# BinNR microsec tot-time (s)  O-Beam AUX Ampl_1(V) f_1(Hz) phase_1(deg) Ampl_2(V) f_2(Hz) phase_2(deg) chi(pos)
0 0.00 1500.00 312 522 0.740 10000.000 0.000 0.000 0.000 0.000 0.494
1 3.00 1500.00 640 1077 0.740 10000.000 0.000 0.000 0.000 0.000 0.494
2 6.00 1500.00 648 1079 0.740 10000.000 0.000 0.000 0.000 0.000 0.494
3 9.00 1500.00 604 1084 0.740 10000.000 0.000 0.000 0.000 0.000 0.494
4 12.00 1500.00 615 1057 0.740 10000.000 0.000 0.000 0.000 0.000 0.494
5 15.00 1500.00 644 1071 0.740 10000.000 0.000 0.000 0.000 0.000 0.494
6 18.00 1500.00 671 1017 0.740 10000.000 0.000 0.000 0.000 0.000 0.494
7 21.00 1500.00 612 1032 0.740 10000.000 0.000 0.000 0.000 0.000 0.494
8 24.00 1500.00 628 1007 0.740 10000.000 0.000 0.000 0.000 0.000 0.494
9 27.00 1500.00 610 1008 0.740 10000.000 0.000 0.000 0.000 0.000 0.494
10 30.00 1500.00 623 1037 0.740 10000.000 0.000 0.000 0.000 0.000 0.494
11 33.00 1500.00 613 1001 0.740 10000.000 0.000 0.000 0.000 0.000 0.494
12 36.00 1500.00 653 1003 0.740 10000.000 0.000 0.000 0.000 0.000 0.494
13 39.00 1500.00 601 1007 0.740 10000.000 0.000 0.000 0.000 0.000 0.494
14 42.00 1500.00 616 1043 0.740 10000.000 0.000 0.000 0.000 0.000 0.494
15 45.00 1500.00 606 1021 0.740 10000.000 0.000 0.000 0.000 0.000 0.494
16 48.00 1500.00 604 1101 0.740 10000.000 0.000 0.000 0.000 0.000 0.494
17 51.00 1500.00 620 1021 0.740 10000.000 0.000 0.000 0.000 0.000 0.494
18 54.00 1500.00 652 1018 0.740 10000.000 0.000 0.000 0.000 0.000 0.494
19 57.00 1500.00 639 974 0.740 10000.000 0.000 0.000 0.000 0.000 0.494
20 60.00 1500.00 679 1053 0.740 10000.000 0.000 0.000 0.000 0.000 0.494
21 63.00 1500.00 614 1034 0.740 10000.000 0.000 0.000 0.000 0.000 0.494
22 66.00 1500.00 636 1014 0.740 10000.000 0.000 0.000 0.000 0.000 0.494
23 69.00 1500.00 623 998 0.740 10000.000 0.000 0.000 0.000 0.000 0.494
24 72.00 1500.00 624 1096 0.740 10000.000 0.000 0.000 0.000 0.000 0.494
25 75.00 1500.00 642 1012 0.740 10000.000 0.000 0.000 0.000 0.000 0.494
26 78.00 1500.00 619 1039 0.740 10000.000 0.000 0.000 0.000 0.000 0.494
27 81.00 1500.00 657 1016 0.740 10000.000 0.000 0.000 0.000 0.000 0.494
28 84.00 1500.00 682 1050 0.740 10000.000 0.000 0.000 0.000 0.000 0.494
29 87.00 1500.00 644 1088 0.740 10000.000 0.000 0.000 0.000 0.000 0.494
30 90.00 1500.00 663 1072 0.740 10000.000 0.000 0.000 0.000 0.000 0.494
31 93.00 1500.00 630 1068 0.740 10000.000 0.000 0.000 0.000 0.000 0.494
32 96.00 1500.00 681 1055 0.740 10000.000 0.000 0.000 0.000 0.000 0.494
33 99.00 1500.00 558 1047 0.740 10000.000 0.000 0.000 0.000 0.000 0.494
34 102.00 1500.00 597 1052 0.740 10000.000 0.000 0.000 0.000 0.000 0.494
35 105.00 1500.00 596 1076 0.740 10000.000 0.000 0.000 0.000 0.000 0.494
36 108.00 1500.00 636 1050 0.740 10000.000 0.000 0.000 0.000 0.000 0.494
37 111.00 1500.00 632 1011 0.740 10000.000 0.000 0.000 0.000 0.000 0.494
38 114.00 1500.00 671 1023 0.740 10000.000 0.000 0.000 0.000 0.000 0.494
39 117.00 1500.00 608 1027 0.740 10000.000 0.000 0.000 0.000 0.000 0.494
40 120.00 1500.00 624 1015 0.740 10000.000 0.000 0.000 0.000 0.000 0.494
41 123.00 1500.00 612 972 0.740 10000.000 0.000 0.000 0.000 0.000 0.494
42 126.00 1500.00 644 1029 0.740 10000.000 0.000 0.000 0.000 0.000 0.494
43 129.00 1500.00 634 1028 0.740 10000.000 0.000 0.000 0.000 0.000 0.494
44 132.00 1500.00 701 1119 0.740 10000.000 0.000 0.000 0.000 0.000 0.494
45 135.00 1500.00 586 1017 0.740 10000.000 0.000 0.000 0.000 0.000 0.494
46 138.00 1500.00 648 1132 0.740 10000.000 0.000 0.000 0.000 0.000 0.494
47 141.00 1500.00 609 1051 0.740 10000.000 0.000 0.000 0.000 0.000 0.494
48 144.00 1500.00 652 1041 0.740 10000.000 0.000 0.000 0.000 0.000 0.494
49 147.00 1500.00 637 1131 0.740 10000.000 0.000 0.000 0.000 0.000 0.494
50 150.00 1500.00 620 1122 0.740 10000.000 0.000 0.000 0.000 0.000 0.494
51 153.00 1500.00 609 1077 0.740 10000.000 0.000 0.000 0.000 0.000 0.494
52 156.00 1500.00 610 1117 0.740 10000.000 0.000 0.000 0.000 0.000 0.494
53 159.00 1500.00 656 1084 0.740 10000.000 0.000 0.000 0.000 0.000 0.494
54 162.00 1500.00 648 1038 0.740 10000.000 0.000 0.000 0.000 0.000 0.494
55 165.00 1500.00 662 1118 0.740 10000.000 0.000 0.000 0.000 0.000 0.494
56 168.00 1500.00 631 1036 0.740 10000.000 0.000 0.000 0.000 0.000 0.494
57 171.00 1500.00 681 1021 0.740 10000.000 0.000 0.000 0.000 0.000 0.494
58 174.00 1500.00 649 982 0.740 10000.000 0.000 0.000 0.000 0.000 0.494
59 177.00 1500.00 648 1025 0.740 10000.000 0.000 0.000 0.000 0.000 0.494
60 180.00 1500.00 612 1040 0.740 10000.000 0.000 0.000 0.000 0.000 0.494
61 183.00 1500.00 660 1020 0.740 10000.000 0.000 0.000 0.000 0.000 0.494
62 186.00 1500.00 658 996 0.740 10000.000 0.000 0.000 0.000 0.000 0.494
63 189.00 1500.00 673 1041 0.740 10000.000 0.000 0.000 0.000 0.000 0.494
64 192.00 1500.00 638 1099 0.740 10000.000 0.000 0.000 0.000 0.000 0.494
65 195.00 1500.00 622 1035 0.740 10000.000 0.000 0.000 0.000 0.000 0.494
66 198.00 1500.00 670 1102 0.740 10000.000 0.000 0.000 0.000 0.000 0.494
67 201.00 1500.00 648 1068 0.740 10000.000 0.000 0.000 0.000 0.000 0.494
68 204.00 1500.00 688 1086 0.740 10000.000 0.000 0.000 0.000 0.000 0.494
69 207.00 1500.00 587 995 0.740 10000.000 0.000 0.000 0.000 0.000 0.494
70 210.00 1500.00 615 988 0.740 10000.000 0.000 0.000 0.000 0.000 0.494
71 213.00 1500.00 628 1058 0.740 10000.000 0.000 0.000 0.000 0.000 0.494
72 216.00 1500.00 603 998 0.740 10000.000 0.000 0.000 0.000 0.000 0.494
73 219.00 1500.00 580 1016 0.740 10000.000 0.000 0.000 0.000 0.000 0.494
74 222.00 1500.00 675 1050 0.740 10000.000 0.000 0.000 0.000 0.000 0.494
75 225.00 1500.00 609 1070 0.740 10000.000 0.000 0.000 0.000 0.000 0.494
76 228.00 1500.00 615 1049 0.740 10000.000 0.000 0.000 0.000 0.000 0.494
77 231.00 1500.00 601 1070 0.740 10000.000 0.000 0.000 0.000 0.000 0.494
78 234.00 1500.00 650 1078 0.740 10000.000 0.000 0.000 0.000 0.000 0.494
79 237.00 1500.00 612 1058 0.740 10000.000 0.000 0.000 0.000 0.000 0.494
80 240.00 1500.00 627 1128 0.740 10000.000 0.000 0.000 0.000 0.000 0.494
81 243.00 1500.00 607 1112 0.740 10000.000 0.000 0.000 0.000 0.000 0.494
82 246.00 1500.00 631 1080 0.740 10000.000 0.000 0.000 0.000 0.000 0.494
83 249.00 1500.00 610 1102 0.740 10000.000 0.000 0.000 0.000 0.000 0.494
84 252.00 1500.00 630 1085 0.740 10000.000 0.000 0.000 0.000 0.000 0.494
85 255.00 1500.00 649 1041 0.740 10000.000 0.000 0.000 0.000 0.000 0.494
86 258.00 1500.00 666 1079 0.740 10000.000 0.000 0.000 0.000 0.000 0.494
87 261.00 1500.00 637 1042 0.740 10000.000 0.000 0.000 0.000 0.000 0.494
88 264.00 1500.00 629 1029 0.740 10000.000 0.000 0.000 0.000 0.000 0.494
89 267.00 1500.00 607 1000 0.740 10000.000 0.000 0.000 0.000 0.000 0.494
90 270.00 1500.00 672 1032 0.740 10000.000 0.000 0.000 0.000 0.000 0.494
91 273.00 1500.00 623 1013 0.740 10000.000 0.000 0.000 0.000 0.000 0.494
92 276.00 1500.00 645 1038 0.740 10000.000 0.000 0.000 0.000 0.000 0.494
93 279.00 1500.00 624 993 0.740 10000.000 0.000 0.000 0.000 0.000 0.494
94 282.00 1500.00 612 1037 0.740 10000.000 0.000 0.000 0.000 0.000 0.494
95 285.00 1500.00 611 1005 0.740 10000.000 0.000 0.000 0.000 0.000 0.494
96 288.00 1500.00 614 1065 0.740 10000.000 0.000 0.000 0.000 0.000 0.494
97 291.00 1500.00 621 1009 0.740 10000.000 0.000 0.000 0.000 0.000 0.494
98 294.00 1500.00 632 1062 0.740 10000.000 0.000 0.000 0.000 0.000 0.494
99 297.00 1500.00 615 1034 0.740 10000.000 0.000 0.000 0.000 0.000 0.494
100 300.00 1500.00 627 1067 0.740 10000.000 0.000 0.000 0.000 0.000 0.494
101 303.00 1500.00 632 1072 0.740 10000.000 0.000 0.000 0.000 0.000 0.494
102 306.00 1500.00 660 1056 0.740 10000.000 0.000 0.000 0.000 0.000 0.494
103 309.00 1500.00 582 981 0.740 10000.000 0.000 0.000 0.000 0.000 0.494
104 312.00 1500.00 626 1047 0.740 10000.000 0.000 0.000 0.000 0.000 0.494
105 315.00 1500.00 634 1109 0.740 10000.000 0.000 0.000 0.000 0.000 0.494
106 318.00 1500.00 650 1036 0.740 10000.000 0.000 0.000 0.000 0.000 0.494
107 321.00 1500.00 622 994 0.740 10000.000 0.000 0.000 0.000 0.000 0.494
108 324.00 1500.00 625 985 0.740 10000.000 0.000 0.000 0.000 0.000 0.494
109 327.00 1500.00 658 1014 0.740 10000.000 0.000 0.000 0.000 0.000 0.494
110 330.00 1500.00 646 1100 0.740 10000.000 0.000 0.000 0.000 0.000 0.494
111 333.00 1500.00 616 1057 0.740 10000.000 0.000 0.000 0.000 0.000 0.494
112 336.00 1500.00 607 1020 0.740 10000.000 0.000 0.000 0.000 0.000 0.494
113 339.00 1500.00 639 1112 0.740 10000.000 0.000 0.000 0.000 0.000 0.494
114 342.00 1500.00 609 1145 0.740 10000.000 0.000 0.000 0.000 0.000 0.494
115 345.00 1500.00 561 1068 0.740 10000.000 0.000 0.000 0.000 0.000 0.494
116 348.00 1500.00 645 1125 0.740 10000.000 0.000 0.000 0.000 0.000 0.494
117 351.00 1500.00 656 1066 0.740 10000.000 0.000 0.000 0.000 0.000 0.494
118 354.00 1500.00 616 1128 0.740 10000.000 0.000 0.000 0.000 0.000 0.494
119 357.00 1500.00 633 1073 0.740 10000.000 0.000 0.000 0.000 0.000 0.494
120 360.00 1500.00 608 1059 0.740 10000.000 0.000 0.000 0.000 0.000 0.494
121 363.00 1500.00 591 1050 0.740 10000.000 0.000 0.000 0.000 0.000 0.494
122 366.00 1500.00 662 1084 0.740 10000.000 0.000 0.000 0.000 0.000 0.494
123 369.00 1500.00 621 1016 0.740 10000.000 0.000 0.000 0.000 0.000 0.494
124 372.00 1500.00 665 995 0.740 10000.000 0.000 0.000 0.000 0.000 0.494
125 375.00 1500.00 615 1012 0.740 10000.000 0.000 0.000 0.000 0.000 0.494
126 378.00 1500.00 668 1053 0.740 10000.000 0.000 0.000 0.000 0.000 0.494
127 381.00 1500.00 648 999 0.740 10000.000 0.000 0.000 0.000 0.000 0.494
128 384.00 1500.00 581 1052 0.740 10000.000 0.000 0.000 0.000 0.000 0.494
129 387.00 1500.00 639 1068 0.740 10000.000 0.000 0.000 0.000 0.000 0.494
130 390.00 1500.00 585 1050 0.740 10000.000 0.000 0.000 0.000 0.000 0.494
131 393.00 1500.00 643 1019 0.740 10000.000 0.000 0.000 0.000 0.000 0.494
132 396.00 1500.00 603 1096 0.740 10000.000 0.000 0.000 0.000 0.000 0.494
133 399.00 1500.00 587 1055 0.740 10000.000 0.000 0.000 0.000 0.000 0.494
134 402.00 1500.00 642 1060 0.740 10000.000 0.000 0.000 0.000 0.000 0.494
135 405.00 1500.00 645 1019 0.740 10000.000 0.000 0.000 0.000 0.000 0.494
136 408.00 1500.00 633 1050 0.740 10000.000 0.000 0.000 0.000 0.000 0.494
137 411.00 1500.00 692 988 0.740 10000.000 0.000 0.000 0.000 0.000 0.494
138 414.00 1500.00 671 1022 0.740 10000.000 0.000 0.000 0.000 0.000 0.494
139 417.00 1500.00 604 970 0.740 10000.000 0.000 0.000 0.000 0.000 0.494
140 420.00 1500.00 598 973 0.740 10000.000 0.000 0.000 0.000 0.000 0.494
141 423.00 1500.00 601 999 0.740 10000.000 0.000 0.000 0.000 0.000 0.494
142 426.00 1500.00 628 985 0.740 10000.000 0.000 0.000 0.000 0.000 0.494
143 429.00 1500.00 666 996 0.740 10000.000 0.000 0.000 0.000 0.000 0.494
144 432.00 1500.00 653 1072 0.740 10000.000 0.000 0.000 0.000 0.000 0.494
