# BinNR microsec tot-time (s)  O-Beam AUX Ampl_1(V) f_1(Hz) phase_1(deg) Ampl_2(V) f_2(Hz) phase_2(deg) chi(pos)
0 0.00 1500.00 254 631 0.740 10000.000 0.000 0.000 0.000 0.000 -1.000
1 3.00 1500.00 456 1232 0.740 10000.000 0.000 0.000 0.000 0.000 -1.000
2 6.00 1500.00 505 1241 0.740 10000.000 0.000 0.000 0.000 0.000 -1.000
3 9.00 1500.00 495 1209 0.740 10000.000 0.000 0.000 0.000 0.000 -1.000
4 12.00 1500.00 470 1318 0.740 10000.000 0.000 0.000 0.000 0.000 -1.000
5 15.00 1500.00 517 1272 0.740 10000.000 0.000 0.000 0.000 0.000 -1.000
6 18.00 1500.00 506 1310 0.740 10000.000 0.000 0.000 0.000 0.000 -1.000
7 21.00 1500.00 476 1253 0.740 10000.000 0.000 0.000 0.000 0.000 -1.000
8 24.00 1500.00 493 1266 0.740 10000.000 0.000 0.000 0.000 0.000 -1.000
9 27.00 1500.00 463 1237 0.740 10000.000 0.000 0.000 0.000 0.000 -1.000
10 30.00 1500.00 488 1247 0.740 10000.000 0.000 0.000 0.000 0.000 -1.000
11 33.00 1500.00 509 1160 0.740 10000.000 0.000 0.000 0.000 0.000 -1.000
12 36.00 1500.00 517 1222 0.740 10000.000 0.000 0.000 0.000 0.000 -1.000
13 39.00 1500.00 496 1224 0.740 10000.000 0.000 0.000 0.000 0.000 -1.000
14 42.00 1500.00 480 1227 0.740 10000.000 0.000 0.000 0.000 0.000 -1.000
15 45.00 1500.00 526 1222 0.740 10000.000 0.000 0.000 0.000 0.000 -1.000
16 48.00 1500.00 474 1297 0.740 10000.000 0.000 0.000 0.000 0.000 -1.000
17 51.00 1500.00 487 1265 0.740 10000.000 0.000 0.000 0.000 0.000 -1.000
18 54.00 1500.00 491 1290 0.740 10000.000 0.000 0.000 0.000 0.000 -1.000
19 57.00 1500.00 467 1236 0.740 10000.000 0.000 0.000 0.000 0.000 -1.000
20 60.00 1500.00 486 1298 0.740 10000.000 0.000 0.000 0.000 0.000 -1.000
21 63.00 1500.00 531 1231 0.740 10000.000 0.000 0.000 0.000 0.000 -1.000
22 66.00 1500.00 498 1311 0.740 10000.000 0.000 0.000 0.000 0.000 -1.000
23 69.00 1500.00 496 1215 0.740 10000.000 0.000 0.000 0.000 0.000 -1.000
24 72.00 1500.00 483 1231 0.740 10000.000 0.000 0.000 0.000 0.000 -1.000
25 75.00 1500.00 484 1199 0.740 10000.000 0.000 0.000 0.000 0.000 -1.000
26 78.00 1500.00 552 1275 0.740 10000.000 0.000 0.000 0.000 0.000 -1.000
27 81.00 1500.00 488 1319 0.740 10000.000 0.000 0.000 0.000 0.000 -1.000
28 84.00 1500.00 557 1232 0.740 10000.000 0.000 0.000 0.000 0.000 -1.000
29 87.00 1500.00 510 1267 0.740 10000.000 0.000 0.000 0.000 0.000 -1.000
30 90.00 1500.00 502 1215 0.740 10000.000 0.000 0.000 0.000 0.000 -1.000
31 93.00 1500.00 504 1267 0.740 10000.000 0.000 0.000 0.000 0.000 -1.000
32 96.00 1500.00 470 1252 0.740 10000.000 0.000 0.000 0.000 0.000 -1.000
33 99.00 1500.00 491 1227 0.740 10000.000 0.000 0.000 0.000 0.000 -1.000
34 102.00 1500.00 509 1273 0.740 10000.000 0.000 0.000 0.000 0.000 -1.000
35 105.00 1500.00 505 1239 0.740 10000.000 0.000 0.000 0.000 0.000 -1.000
36 108.00 1500.00 522 1289 0.740 10000.000 0.000 0.000 0.000 0.000 -1.000
37 111.00 1500.00 465 1299 0.740 10000.000 0.000 0.000 0.000 0.000 -1.000
38 114.00 1500.00 490 1281 0.740 10000.000 0.000 0.000 0.000 0.000 -1.000
39 117.00 1500.00 439 1232 0.740 10000.000 0.000 0.000 0.000 0.000 -1.000
40 120.00 1500.00 505 1248 0.740 10000.000 0.000 0.000 0.000 0.000 -1.000
41 123.00 1500.00 454 1211 0.740 10000.000 0.000 0.000 0.000 0.000 -1.000
42 126.00 1500.00 518 1263 0.740 10000.000 0.000 0.000 0.000 0.000 -1.000
43 129.00 1500.00 474 1245 0.740 10000.000 0.000 0.000 0.000 0.000 -1.000
44 132.00 1500.00 506 1314 0.740 10000.000 0.000 0.000 0.000 0.000 -1.000
45 135.00 1500.00 510 1294 0.740 10000.000 0.000 0.000 0.000 0.000 -1.000
46 138.00 1500.00 539 1332 0.740 10000.000 0.000 0.000 0.000 0.000 -1.000
47 141.00 1500.00 493 1366 0.740 10000.000 0.000 0.000 0.000 0.000 -1.000
48 144.00 1500.00 475 1278 0.740 10000.000 0.000 0.000 0.000 0.000 -1.000
49 147.00 1500.00 475 1277 0.740 10000.000 0.000 0.000 0.000 0.000 -1.000
50 150.00 1500.00 491 1351 0.740 10000.000 0.000 0.000 0.000 0.000 -1.000
51 153.00 1500.00 491 1314 0.740 10000.000 0.000 0.000 0.000 0.000 -1.000
52 156.00 1500.00 486 1302 0.740 10000.000 0.000 0.000 0.000 0.000 -1.000
53 159.00 1500.00 465 1267 0.740 10000.000 0.000 0.000 0.000 0.000 -1.000
54 162.00 1500.00 441 1256 0.740 10000.000 0.000 0.000 0.000 0.000 -1.000
55 165.00 1500.00 492 1207 0.740 10000.000 0.000 0.000 0.000 0.000 -1.000
56 168.00 1500.00 508 1295 0.740 10000.000 0.000 0.000 0.000 0.000 -1.000
57 171.00 1500.00 509 1229 0.740 10000.000 0.000 0.000 0.000 0.000 -1.000
58 174.00 1500.00 517 1263 0.740 10000.000 0.000 0.000 0.000 0.000 -1.000
59 177.00 1500.00 534 1243 0.740 10000.000 0.000 0.000 0.000 0.000 -1.000
60 180.00 1500.00 513 1279 0.740 10000.000 0.000 0.000 0.000 0.000 -1.000
61 183.00 1500.00 475 1211 0.740 10000.000 0.000 0.000 0.000 0.000 -1.000
62 186.00 1500.00 501 1302 0.740 10000.000 0.000 0.000 0.000 0.000 -1.000
63 189.00 1500.00 509 1222 0.740 10000.000 0.000 0.000 0.000 0.000 -1.000
64 192.00 1500.00 519 1236 0.740 10000.000 0.000 0.000 0.000 0.000 -1.000
65 195.00 1500.00 535 1231 0.740 10000.000 0.000 0.000 0.000 0.000 -1.000
66 198.00 1500.00 476 1285 0.740 10000.000 0.000 0.000 0.000 0.000 -1.000
67 201.00 1500.00 514 1216 0.740 10000.000 0.000 0.000 0.000 0.000 -1.000
68 204.00 1500.00 477 1241 0.740 10000.000 0.000 0.000 0.000 0.000 -1.000
69 207.00 1500.00 502 1193 0.740 10000.000 0.000 0.000 0.000 0.000 -1.000
70 210.00 1500.00 509 1235 0.740 10000.000 0.000 0.000 0.000 0.000 -1.000
71 213.00 1500.00 498 1235 0.740 10000.000 0.000 0.000 0.000 0.000 -1.000
72 216.00 1500.00 548 1264 0.740 10000.000 0.000 0.000 0.000 0.000 -1.000
73 219.00 1500.00 510 1184 0.740 10000.000 0.000 0.000 0.000 0.000 -1.000
74 222.00 1500.00 521 1240 0.740 10000.000 0.000 0.000 0.000 0.000 -1.000
75 225.00 1500.00 488 1233 0.740 10000.000 0.000 0.000 0.000 0.000 -1.000
76 228.00 1500.00 499 1213 0.740 10000.000 0.000 0.000 0.000 0.000 -1.000
77 231.00 1500.00 482 1290 0.740 10000.000 0.000 0.000 0.000 0.000 -1.000
78 234.00 1500.00 488 1248 0.740 10000.000 0.000 0.000 0.000 0.000 -1.000
79 237.00 1500.00 544 1228 0.740 10000.000 0.000 0.000 0.000 0.000 -1.000
80 240.00 1500.00 536 1282 0.740 10000.000 0.000 0.000 0.000 0.000 -1.000
81 243.00 1500.00 482 1297 0.740 10000.000 0.000 0.000 0.000 0.000 -1.000
82 246.00 1500.00 489 1333 0.740 10000.000 0.000 0.000 0.000 0.000 -1.000
83 249.00 1500.00 476 1280 0.740 10000.000 0.000 0.000 0.000 0.000 -1.000
84 252.00 1500.00 468 1254 0.740 10000.000 0.000 0.000 0.000 0.000 -1.000
85 255.00 1500.00 483 1258 0.740 10000.000 0.000 0.000 0.000 0.000 -1.000
86 258.00 1500.00 499 1261 0.740 10000.000 0.000 0.000 0.000 0.000 -1.000
87 261.00 1500.00 460 1226 0.740 10000.000 0.000 0.000 0.000 0.000 -1.000
88 264.00 1500.00 495 1269 0.740 10000.000 0.000 0.000 0.000 0.000 -1.000
89 267.00 1500.00 463 1249 0.740 10000.000 0.000 0.000 0.000 0.000 -1.000
90 270.00 1500.00 476 1175 0.740 10000.000 0.000 0.000 0.000 0.000 -1.000
91 273.00 1500.00 519 1288 0.740 10000.000 0.000 0.000 0.000 0.000 -1.000
92 276.00 1500.00 459 1269 0.740 10000.000 0.000 0.000 0.000 0.000 -1.000
93 279.00 1500.00 531 1244 0.740 10000.000 0.000 0.000 0.000 0.000 -1.000
94 282.00 1500.00 539 1241 0.740 10000.000 0.000 0.000 0.000 0.000 -1.000
95 285.00 1500.00 525 1258 0.740 10000.000 0.000 0.000 0.000 0.000 -1.000
96 288.00 1500.00 505 1257 0.740 10000.000 0.000 0.000 0.000 0.000 -1.000
97 291.00 1500.00 511 1272 0.740 10000.000 0.000 0.000 0.000 0.000 -1.000
98 294.00 1500.00 463 1202 0.740 10000.000 0.000 0.000 0.000 0.000 -1.000
99 297.00 1500.00 466 1332 0.740 10000.000 0.000 0.000 0.000 0.000 -1.000
100 300.00 1500.00 535 1296 0.740 10000.000 0.000 0.000 0.000 0.000 -1.000
101 303.00 1500.00 513 1188 0.740 10000.000 0.000 0.000 0.000 0.000 -1.000
102 306.00 1500.00 529 1304 0.740 10000.000 0.000 0.000 0.000 0.000 -1.000
103 309.00 1500.00 494 1205 0.740 10000.000 0.000 0.000 0.000 0.000 -1.000
104 312.00 1500.00 477 1348 0.740 10000.000 0.000 0.000 0.000 0.000 -1.000
105 315.00 1500.00 506 1278 0.740 10000.000 0.000 0.000 0.000 0.000 -1.000
106 318.00 1500.00 526 1270 0.740 10000.000 0.000 0.000 0.000 0.000 -1.000
107 321.00 1500.00 476 1203 0.740 10000.000 0.000 0.000 0.000 0.000 -1.000
108 324.00 1500.00 495 1183 0.740 10000.000 0.000 0.000 0.000 0.000 -1.000
109 327.00 1500.00 503 1193 0.740 10000.000 0.000 0.000 0.000 0.000 -1.000
110 330.00 1500.00 507 1235 0.740 10000.000 0.000 0.000 0.000 0.000 -1.000
111 333.00 1500.00 521 1311 0.740 10000.000 0.000 0.000 0.000 0.000 -1.000
112 336.00 1500.00 508 1313 0.740 10000.000 0.000 0.000 0.000 0.000 -1.000
113 339.00 1500.00 498 1242 0.740 10000.000 0.000 0.000 0.000 0.000 -1.000
114 342.00 1500.00 497 1271 0.740 10000.000 0.000 0.000 0.000 0.000 -1.000
115 345.00 1500.00 490 1338 0.740 10000.000 0.000 0.000 0.000 0.000 -1.000
116 348.00 1500.00 502 1317 0.740 10000.000 0.000 0.000 0.000 0.000 -1.000
117 351.00 1500.00 492 1283 0.740 10000.000 0.000 0.000 0.000 0.000 -1.000
118 354.00 1500.00 516 1340 0.740 10000.000 0.000 0.000 0.000 0.000 -1.000
119 357.00 1500.00 499 1267 0.740 10000.000 0.000 0.000 0.000 0.000 -1.000
120 360.00 1500.00 463 1245 0.740 10000.000 0.000 0.000 0.000 0.000 -1.000
121 363.00 1500.00 468 1281 0.740 10000.000 0.000 0.000 0.000 0.000 -1.000
122 366.00 1500.00 503 1286 0.740 10000.000 0.000 0.000 0.000 0.000 -1.000
123 369.00 1500.00 517 1215 0.740 10000.000 0.000 0.000 0.000 0.000 -1.000
124 372.00 1500.00 539 1264 0.740 10000.000 0.000 0.000 0.000 0.000 -1.000
125 375.00 1500.00 502 1188 0.740 10000.000 0.000 0.000 0.000 0.000 -1.000
126 378.00 1500.00 495 1277 0.740 10000.000 0.000 0.000 0.000 0.000 -1.000
127 381.00 1500.00 495 1181 0.740 10000.000 0.000 0.000 0.000 0.000 -1.000
128 384.00 1500.00 499 1223 0.740 10000.000 0.000 0.000 0.000 0.000 -1.000
129 387.00 1500.00 480 1261 0.740 10000.000 0.000 0.000 0.000 0.000 -1.000
130 390.00 1500.00 495 1250 0.740 10000.000 0.000 0.000 0.000 0.000 -1.000
131 393.00 1500.00 486 1252 0.740 10000.000 0.000 0.000 0.000 0.000 -1.000
132 396.00 1500.00 530 1231 0.740 10000.000 0.000 0.000 0.000 0.000 -1.000
133 399.00 1500.00 488 1325 0.740 10000.000 0.000 0.000 0.000 0.000 -1.000
134 402.00 1500.00 474 1226 0.740 10000.000 0.000 0.000 0.000 0.000 -1.000
135 405.00 1500.00 497 1255 0.740 10000.000 0.000 0.000 0.000 0.000 -1.000
136 408.00 1500.00 532 1250 0.740 10000.000 0.000 0.000 0.000 0.000 -1.000
137 411.00 1500.00 529 1203 0.740 10000.000 0.000 0.000 0.000 0.000 -1.000
138 414.00 1500.00 561 1279 0.740 10000.000 0.000 0.000 0.000 0.000 -1.000
139 417.00 1500.00 511 1247 0.740 10000.000 0.000 0.000 0.000 0.000 -1.000
140 420.00 1500.00 526 1276 0.740 10000.000 0.000 0.000 0.000 0.000 -1.000
141 423.00 1500.00 554 1226 0.740 10000.000 0.000 0.000 0.000 0.000 -1.000
142 426.00 1500.00 498 1206 0.740 10000.000 0.000 0.000 0.000 0.000 -1.000
143 429.00 1500.00 485 1233 0.740 10000.000 0.000 0.000 0.000 0.000 -1.000
144 432.00 1500.00 491 1298 0.740 10000.000 0.000 0.000 0.000 0.000 -1.000
