# BinNR microsec tot-time (s)  O-Beam AUX Ampl_1(V) f_1(Hz) phase_1(deg) Ampl_2(V) f_2(Hz) phase_2(deg) chi(pos)
0 0.00 1500.00 202 374 0.740 10000.000 0.000 0.000 0.000 0.000 -1.165
1 3.00 1500.00 433 777 0.740 10000.000 0.000 0.000 0.000 0.000 -1.165
2 6.00 1500.00 459 782 0.740 10000.000 0.000 0.000 0.000 0.000 -1.165
3 9.00 1500.00 430 788 0.740 10000.000 0.000 0.000 0.000 0.000 -1.165
4 12.00 1500.00 440 798 0.740 10000.000 0.000 0.000 0.000 0.000 -1.165
5 15.00 1500.00 438 745 0.740 10000.000 0.000 0.000 0.000 0.000 -1.165
6 18.00 1500.00 451 703 0.740 10000.000 0.000 0.000 0.000 0.000 -1.165
7 21.00 1500.00 459 731 0.740 10000.000 0.000 0.000 0.000 0.000 -1.165
8 24.00 1500.00 452 743 0.740 10000.000 0.000 0.000 0.000 0.000 -1.165
9 27.00 1500.00 418 732 0.740 10000.000 0.000 0.000 0.000 0.000 -1.165
10 30.00 1500.00 451 733 0.740 10000.000 0.000 0.000 0.000 0.000 -1.165
11 33.00 1500.00 412 726 0.740 10000.000 0.000 0.000 0.000 0.000 -1.165
12 36.00 1500.00 486 740 0.740 10000.000 0.000 0.000 0.000 0.000 -1.165
13 39.00 1500.00 460 739 0.740 10000.000 0.000 0.000 0.000 0.000 -1.165
14 42.00 1500.00 442 722 0.740 10000.000 0.000 0.000 0.000 0.000 -1.165
15 45.00 1500.00 453 711 0.740 10000.000 0.000 0.000 0.000 0.000 -1.165
16 48.00 1500.00 445 830 0.740 10000.000 0.000 0.000 0.000 0.000 -1.165
17 51.00 1500.00 461 726 0.740 10000.000 0.000 0.000 0.000 0.000 -1.165
18 54.00 1500.00 464 783 0.740 10000.000 0.000 0.000 0.000 0.000 -1.165
19 57.00 1500.00 420 766 0.740 10000.000 0.000 0.000 0.000 0.000 -1.165
20 60.00 1500.00 470 741 0.740 10000.000 0.000 0.000 0.000 0.000 -1.165
21 63.00 1500.00 450 761 0.740 10000.000 0.000 0.000 0.000 0.000 -1.165
22 66.00 1500.00 433 770 0.740 10000.000 0.000 0.000 0.000 0.000 -1.165
23 69.00 1500.00 416 709 0.740 10000.000 0.000 0.000 0.000 0.000 -1.165
24 72.00 1500.00 436 730 0.740 10000.000 0.000 0.000 0.000 0.000 -1.165
25 75.00 1500.00 438 702 0.740 10000.000 0.000 0.000 0.000 0.000 -1.165
26 78.00 1500.00 474 713 0.740 10000.000 0.000 0.000 0.000 0.000 -1.165
27 81.00 1500.00 456 731 0.740 10000.000 0.000 0.000 0.000 0.000 -1.165
28 84.00 1500.00 442 735 0.740 10000.000 0.000 0.000 0.000 0.000 -1.165
29 87.00 1500.00 414 685 0.740 10000.000 0.000 0.000 0.000 0.000 -1.165
30 90.00 1500.00 409 741 0.740 10000.000 0.000 0.000 0.000 0.000 -1.165
31 93.00 1500.00 452 761 0.740 10000.000 0.000 0.000 0.000 0.000 -1.165
32 96.00 1500.00 473 796 0.740 10000.000 0.000 0.000 0.000 0.000 -1.165
33 99.00 1500.00 435 736 0.740 10000.000 0.000 0.000 0.000 0.000 -1.165
34 102.00 1500.00 473 759 0.740 10000.000 0.000 0.000 0.000 0.000 -1.165
35 105.00 1500.00 439 755 0.740 10000.000 0.000 0.000 0.000 0.000 -1.165
36 108.00 1500.00 457 751 0.740 10000.000 0.000 0.000 0.000 0.000 -1.165
37 111.00 1500.00 442 677 0.740 10000.000 0.000 0.000 0.000 0.000 -1.165
38 114.00 1500.00 469 756 0.740 10000.000 0.000 0.000 0.000 0.000 -1.165
39 117.00 1500.00 447 747 0.740 10000.000 0.000 0.000 0.000 0.000 -1.165
40 120.00 1500.00 427 720 0.740 10000.000 0.000 0.000 0.000 0.000 -1.165
41 123.00 1500.00 444 689 0.740 10000.000 0.000 0.000 0.000 0.000 -1.165
42 126.00 1500.00 445 783 0.740 10000.000 0.000 0.000 0.000 0.000 -1.165
43 129.00 1500.00 448 707 0.740 10000.000 0.000 0.000 0.000 0.000 -1.165
44 132.00 1500.00 414 752 0.740 10000.000 0.000 0.000 0.000 0.000 -1.165
45 135.00 1500.00 458 731 0.740 10000.000 0.000 0.000 0.000 0.000 -1.165
46 138.00 1500.00 501 854 0.740 10000.000 0.000 0.000 0.000 0.000 -1.165
47 141.00 1500.00 410 847 0.740 10000.000 0.000 0.000 0.000 0.000 -1.165
48 144.00 1500.00 421 807 0.740 10000.000 0.000 0.000 0.000 0.000 -1.165
49 147.00 1500.00 430 750 0.740 10000.000 0.000 0.000 0.000 0.000 -1.165
50 150.00 1500.00 461 882 0.740 10000.000 0.000 0.000 0.000 0.000 -1.165
51 153.00 1500.00 433 816 0.740 10000.000 0.000 0.000 0.000 0.000 -1.165
52 156.00 1500.00 436 800 0.740 10000.000 0.000 0.000 0.000 0.000 -1.165
53 159.00 1500.00 451 774 0.740 10000.000 0.000 0.000 0.000 0.000 -1.165
54 162.00 1500.00 442 791 0.740 10000.000 0.000 0.000 0.000 0.000 -1.165
55 165.00 1500.00 436 718 0.740 10000.000 0.000 0.000 0.000 0.000 -1.165
56 168.00 1500.00 445 748 0.740 10000.000 0.000 0.000 0.000 0.000 -1.165
57 171.00 1500.00 461 719 0.740 10000.000 0.000 0.000 0.000 0.000 -1.165
58 174.00 1500.00 476 711 0.740 10000.000 0.000 0.000 0.000 0.000 -1.165
59 177.00 1500.00 491 740 0.740 10000.000 0.000 0.000 0.000 0.000 -1.165
60 180.00 1500.00 458 727 0.740 10000.000 0.000 0.000 0.000 0.000 -1.165
61 183.00 1500.00 416 685 0.740 10000.000 0.000 0.000 0.000 0.000 -1.165
62 186.00 1500.00 455 752 0.740 10000.000 0.000 0.000 0.000 0.000 -1.165
63 189.00 1500.00 447 772 0.740 10000.000 0.000 0.000 0.000 0.000 -1.165
64 192.00 1500.00 431 787 0.740 10000.000 0.000 0.000 0.000 0.000 -1.165
65 195.00 1500.00 420 831 0.740 10000.000 0.000 0.000 0.000 0.000 -1.165
66 198.00 1500.00 455 795 0.740 10000.000 0.000 0.000 0.000 0.000 -1.165
67 201.00 1500.00 453 736 0.740 10000.000 0.000 0.000 0.000 0.000 -1.165
68 204.00 1500.00 431 789 0.740 10000.000 0.000 0.000 0.000 0.000 -1.165
69 207.00 1500.00 438 757 0.740 10000.000 0.000 0.000 0.000 0.000 -1.165
70 210.00 1500.00 455 744 0.740 10000.000 0.000 0.000 0.000 0.000 -1.165
71 213.00 1500.00 401 743 0.740 10000.000 0.000 0.000 0.000 0.000 -1.165
72 216.00 1500.00 443 748 0.740 10000.000 0.000 0.000 0.000 0.000 -1.165
73 219.00 1500.00 430 756 0.740 10000.000 0.000 0.000 0.000 0.000 -1.165
74 222.00 1500.00 434 724 0.740 10000.000 0.000 0.000 0.000 0.000 -1.165
75 225.00 1500.00 474 693 0.740 10000.000 0.000 0.000 0.000 0.000 -1.165
76 228.00 1500.00 460 764 0.740 10000.000 0.000 0.000 0.000 0.000 -1.165
77 231.00 1500.00 423 727 0.740 10000.000 0.000 0.000 0.000 0.000 -1.165
78 234.00 1500.00 426 810 0.740 10000.000 0.000 0.000 0.000 0.000 -1.165
79 237.00 1500.00 425 748 0.740 10000.000 0.000 0.000 0.000 0.000 -1.165
80 240.00 1500.00 482 840 0.740 10000.000 0.000 0.000 0.000 0.000 -1.165
81 243.00 1500.00 452 794 0.740 10000.000 0.000 0.000 0.000 0.000 -1.165
82 246.00 1500.00 458 825 0.740 10000.000 0.000 0.000 0.000 0.000 -1.165
83 249.00 1500.00 457 805 0.740 10000.000 0.000 0.000 0.000 0.000 -1.165
84 252.00 1500.00 449 827 0.740 10000.000 0.000 0.000 0.000 0.000 -1.165
85 255.00 1500.00 466 809 0.740 10000.000 0.000 0.000 0.000 0.000 -1.165
86 258.00 1500.00 463 797 0.740 10000.000 0.000 0.000 0.000 0.000 -1.165
87 261.00 1500.00 414 724 0.740 10000.000 0.000 0.000 0.000 0.000 -1.165
88 264.00 1500.00 435 807 0.740 10000.000 0.000 0.000 0.000 0.000 -1.165
89 267.00 1500.00 421 721 0.740 10000.000 0.000 0.000 0.000 0.000 -1.165
90 270.00 1500.00 432 712 0.740 10000.000 0.000 0.000 0.000 0.000 -1.165
91 273.00 1500.00 437 676 0.740 10000.000 0.000 0.000 0.000 0.000 -1.165
92 276.00 1500.00 476 672 0.740 10000.000 0.000 0.000 0.000 0.000 -1.165
93 279.00 1500.00 453 718 0.740 10000.000 0.000 0.000 0.000 0.000 -1.165
94 282.00 1500.00 444 745 0.740 10000.000 0.000 0.000 0.000 0.000 -1.165
95 285.00 1500.00 432 742 0.740 10000.000 0.000 0.000 0.000 0.000 -1.165
96 288.00 1500.00 418 802 0.740 10000.000 0.000 0.000 0.000 0.000 -1.165
97 291.00 1500.00 468 742 0.740 10000.000 0.000 0.000 0.000 0.000 -1.165
98 294.00 1500.00 433 776 0.740 10000.000 0.000 0.000 0.000 0.000 -1.165
99 297.00 1500.00 432 789 0.740 10000.000 0.000 0.000 0.000 0.000 -1.165
100 300.00 1500.00 440 771 0.740 10000.000 0.000 0.000 0.000 0.000 -1.165
101 303.00 1500.00 458 757 0.740 10000.000 0.000 0.000 0.000 0.000 -1.165
102 306.00 1500.00 473 752 0.740 10000.000 0.000 0.000 0.000 0.000 -1.165
103 309.00 1500.00 482 733 0.740 10000.000 0.000 0.000 0.000 0.000 -1.165
104 312.00 1500.00 431 719 0.740 10000.000 0.000 0.000 0.000 0.000 -1.165
105 315.00 1500.00 436 687 0.740 10000.000 0.000 0.000 0.000 0.000 -1.165
106 318.00 1500.00 463 702 0.740 10000.000 0.000 0.000 0.000 0.000 -1.165
107 321.00 1500.00 435 700 0.740 10000.000 0.000 0.000 0.000 0.000 -1.165
108 324.00 1500.00 420 684 0.740 10000.000 0.000 0.000 0.000 0.000 -1.165
109 327.00 1500.00 398 760 0.740 10000.000 0.000 0.000 0.000 0.000 -1.165
110 330.00 1500.00 510 728 0.740 10000.000 0.000 0.000 0.000 0.000 -1.165
111 333.00 1500.00 429 761 0.740 10000.000 0.000 0.000 0.000 0.000 -1.165
112 336.00 1500.00 465 786 0.740 10000.000 0.000 0.000 0.000 0.000 -1.165
113 339.00 1500.00 430 766 0.740 10000.000 0.000 0.000 0.000 0.000 -1.165
114 342.00 1500.00 449 878 0.740 10000.000 0.000 0.000 0.000 0.000 -1.165
115 345.00 1500.00 430 809 0.740 10000.000 0.000 0.000 0.000 0.000 -1.165
116 348.00 1500.00 436 867 0.740 10000.000 0.000 0.000 0.000 0.000 -1.165
117 351.00 1500.00 459 810 0.740 10000.000 0.000 0.000 0.000 0.000 -1.165
118 354.00 1500.00 424 801 0.740 10000.000 0.000 0.000 0.000 0.000 -1.165
119 357.00 1500.00 435 821 0.740 10000.000 0.000 0.000 0.000 0.000 -1.165
120 360.00 1500.00 488 797 0.740 10000.000 0.000 0.000 0.000 0.000 -1.165
121 363.00 1500.00 455 783 0.740 10000.000 0.000 0.000 0.000 0.000 -1.165
122 366.00 1500.00 449 747 0.740 10000.000 0.000 0.000 0.000 0.000 -1.165
123 369.00 1500.00 432 689 0.740 10000.000 0.000 0.000 0.000 0.000 -1.165
124 372.00 1500.00 460 746 0.740 10000.000 0.000 0.000 0.000 0.000 -1.165
125 375.00 1500.00 462 645 0.740 10000.000 0.000 0.000 0.000 0.000 -1.165
126 378.00 1500.00 438 764 0.740 10000.000 0.000 0.000 0.000 0.000 -1.165
127 381.00 1500.00 432 734 0.740 10000.000 0.000 0.000 0.000 0.000 -1.165
128 384.00 1500.00 438 691 0.740 10000.000 0.000 0.000 0.000 0.000 -1.165
129 387.00 1500.00 439 762 0.740 10000.000 0.000 0.000 0.000 0.000 -1.165
130 390.00 1500.00 456 778 0.740 10000.000 0.000 0.000 0.000 0.000 -1.165
131 393.00 1500.00 463 736 0.740 10000.000 0.000 0.000 0.000 0.000 -1.165
132 396.00 1500.00 455 770 0.740 10000.000 0.000 0.000 0.000 0.000 -1.165
133 399.00 1500.00 438 747 0.740 10000.000 0.000 0.000 0.000 0.000 -1.165
134 402.00 1500.00 465 778 0.740 10000.000 0.000 0.000 0.000 0.000 -1.165
135 405.00 1500.00 449 792 0.740 10000.000 0.000 0.000 0.000 0.000 -1.165
136 408.00 1500.00 446 753 0.740 10000.000 0.000 0.000 0.000 0.000 -1.165
137 411.00 1500.00 435 748 0.740 10000.000 0.000 0.000 0.000 0.000 -1.165
138 414.00 1500.00 477 739 0.740 10000.000 0.000 0.000 0.000 0.000 -1.165
139 417.00 1500.00 426 730 0.740 10000.000 0.000 0.000 0.000 0.000 -1.165
140 420.00 1500.00 451 747 0.740 10000.000 0.000 0.000 0.000 0.000 -1.165
141 423.00 1500.00 453 731 0.740 10000.000 0.000 0.000 0.000 0.000 -1.165
142 426.00 1500.00 458 733 0.740 10000.000 0.000 0.000 0.000 0.000 -1.165
143 429.00 1500.00 429 780 0.740 10000.000 0.000 0.000 0.000 0.000 -1.165
144 432.00 1500.00 474 780 0.740 10000.000 0.000 0.000 0.000 0.000 -1.165
