# BinNR microsec tot-time (s)  O-Beam AUX Ampl_1(V) f_1(Hz) phase_1(deg) Ampl_2(V) f_2(Hz) phase_2(deg) chi(pos)
0 0.00 1500.01 246 611 0.740 10000.000 0.000 0.000 0.000 0.000 1.000
1 3.00 1500.01 504 1292 0.740 10000.000 0.000 0.000 0.000 0.000 1.000
2 6.00 1500.01 508 1260 0.740 10000.000 0.000 0.000 0.000 0.000 1.000
3 9.00 1500.01 435 1223 0.740 10000.000 0.000 0.000 0.000 0.000 1.000
4 12.00 1500.01 532 1275 0.740 10000.000 0.000 0.000 0.000 0.000 1.000
5 15.00 1500.01 487 1321 0.740 10000.000 0.000 0.000 0.000 0.000 1.000
6 18.00 1500.01 542 1259 0.740 10000.000 0.000 0.000 0.000 0.000 1.000
7 21.00 1500.01 490 1224 0.740 10000.000 0.000 0.000 0.000 0.000 1.000
8 24.00 1500.01 527 1259 0.740 10000.000 0.000 0.000 0.000 0.000 1.000
9 27.00 1500.01 513 1198 0.740 10000.000 0.000 0.000 0.000 0.000 1.000
10 30.00 1500.01 508 1255 0.740 10000.000 0.000 0.000 0.000 0.000 1.000
11 33.00 1500.01 519 1270 0.740 10000.000 0.000 0.000 0.000 0.000 1.000
12 36.00 1500.01 517 1245 0.740 10000.000 0.000 0.000 0.000 0.000 1.000
13 39.00 1500.01 480 1253 0.740 10000.000 0.000 0.000 0.000 0.000 1.000
14 42.00 1500.01 477 1198 0.740 10000.000 0.000 0.000 0.000 0.000 1.000
15 45.00 1500.01 468 1291 0.740 10000.000 0.000 0.000 0.000 0.000 1.000
16 48.00 1500.01 496 1261 0.740 10000.000 0.000 0.000 0.000 0.000 1.000
17 51.00 1500.01 505 1306 0.740 10000.000 0.000 0.000 0.000 0.000 1.000
18 54.00 1500.01 503 1235 0.740 10000.000 0.000 0.000 0.000 0.000 1.000
19 57.00 1500.01 446 1297 0.740 10000.000 0.000 0.000 0.000 0.000 1.000
20 60.00 1500.01 471 1307 0.740 10000.000 0.000 0.000 0.000 0.000 1.000
21 63.00 1500.01 481 1303 0.740 10000.000 0.000 0.000 0.000 0.000 1.000
22 66.00 1500.01 482 1281 0.740 10000.000 0.000 0.000 0.000 0.000 1.000
23 69.00 1500.01 537 1283 0.740 10000.000 0.000 0.000 0.000 0.000 1.000
24 72.00 1500.01 498 1215 0.740 10000.000 0.000 0.000 0.000 0.000 1.000
25 75.00 1500.01 489 1229 0.740 10000.000 0.000 0.000 0.000 0.000 1.000
26 78.00 1500.01 509 1304 0.740 10000.000 0.000 0.000 0.000 0.000 1.000
27 81.00 1500.01 501 1191 0.740 10000.000 0.000 0.000 0.000 0.000 1.000
28 84.00 1500.01 523 1221 0.740 10000.000 0.000 0.000 0.000 0.000 1.000
29 87.00 1500.01 512 1253 0.740 10000.000 0.000 0.000 0.000 0.000 1.000
30 90.00 1500.01 546 1291 0.740 10000.000 0.000 0.000 0.000 0.000 1.000
31 93.00 1500.01 491 1176 0.740 10000.000 0.000 0.000 0.000 0.000 1.000
32 96.00 1500.01 528 1317 0.740 10000.000 0.000 0.000 0.000 0.000 1.000
33 99.00 1500.01 479 1282 0.740 10000.000 0.000 0.000 0.000 0.000 1.000
34 102.00 1500.01 492 1267 0.740 10000.000 0.000 0.000 0.000 0.000 1.000
35 105.00 1500.01 510 1294 0.740 10000.000 0.000 0.000 0.000 0.000 1.000
36 108.00 1500.01 508 1287 0.740 10000.000 0.000 0.000 0.000 0.000 1.000
37 111.00 1500.01 528 1173 0.740 10000.000 0.000 0.000 0.000 0.000 1.000
38 114.00 1500.01 533 1321 0.740 10000.000 0.000 0.000 0.000 0.000 1.000
39 117.00 1500.01 489 1154 0.740 10000.000 0.000 0.000 0.000 0.000 1.000
40 120.00 1500.01 455 1235 0.740 10000.000 0.000 0.000 0.000 0.000 1.000
41 123.00 1500.01 476 1332 0.740 10000.000 0.000 0.000 0.000 0.000 1.000
42 126.00 1500.01 476 1247 0.740 10000.000 0.000 0.000 0.000 0.000 1.000
43 129.00 1500.01 506 1163 0.740 10000.000 0.000 0.000 0.000 0.000 1.000
44 132.00 1500.01 513 1346 0.740 10000.000 0.000 0.000 0.000 0.000 1.000
45 135.00 1500.01 524 1224 0.740 10000.000 0.000 0.000 0.000 0.000 1.000
46 138.00 1500.01 533 1429 0.740 10000.000 0.000 0.000 0.000 0.000 1.000
47 141.00 1500.01 519 1304 0.740 10000.000 0.000 0.000 0.000 0.000 1.000
48 144.00 1500.01 505 1306 0.740 10000.000 0.000 0.000 0.000 0.000 1.000
49 147.00 1500.01 490 1322 0.740 10000.000 0.000 0.000 0.000 0.000 1.000
50 150.00 1500.01 517 1385 0.740 10000.000 0.000 0.000 0.000 0.000 1.000
51 153.00 1500.01 481 1274 0.740 10000.000 0.000 0.000 0.000 0.000 1.000
52 156.00 1500.01 496 1318 0.740 10000.000 0.000 0.000 0.000 0.000 1.000
53 159.00 1500.01 462 1232 0.740 10000.000 0.000 0.000 0.000 0.000 1.000
54 162.00 1500.01 498 1265 0.740 10000.000 0.000 0.000 0.000 0.000 1.000
55 165.00 1500.01 520 1263 0.740 10000.000 0.000 0.000 0.000 0.000 1.000
56 168.00 1500.01 498 1253 0.740 10000.000 0.000 0.000 0.000 0.000 1.000
57 171.00 1500.01 491 1229 0.740 10000.000 0.000 0.000 0.000 0.000 1.000
58 174.00 1500.01 507 1253 0.740 10000.000 0.000 0.000 0.000 0.000 1.000
59 177.00 1500.01 524 1255 0.740 10000.000 0.000 0.000 0.000 0.000 1.000
60 180.00 1500.01 543 1289 0.740 10000.000 0.000 0.000 0.000 0.000 1.000
61 183.00 1500.01 497 1245 0.740 10000.000 0.000 0.000 0.000 0.000 1.000
62 186.00 1500.01 534 1216 0.740 10000.000 0.000 0.000 0.000 0.000 1.000
63 189.00 1500.01 479 1253 0.740 10000.000 0.000 0.000 0.000 0.000 1.000
64 192.00 1500.01 521 1242 0.740 10000.000 0.000 0.000 0.000 0.000 1.000
65 195.00 1500.01 515 1271 0.740 10000.000 0.000 0.000 0.000 0.000 1.000
66 198.00 1500.01 518 1348 0.740 10000.000 0.000 0.000 0.000 0.000 1.000
67 201.00 1500.01 522 1259 0.740 10000.000 0.000 0.000 0.000 0.000 1.000
68 204.00 1500.01 527 1276 0.740 10000.000 0.000 0.000 0.000 0.000 1.000
69 207.00 1500.01 486 1265 0.740 10000.000 0.000 0.000 0.000 0.000 1.000
70 210.00 1500.01 475 1258 0.740 10000.000 0.000 0.000 0.000 0.000 1.000
71 213.00 1500.01 467 1270 0.740 10000.000 0.000 0.000 0.000 0.000 1.000
72 216.00 1500.01 491 1230 0.740 10000.000 0.000 0.000 0.000 0.000 1.000
73 219.00 1500.01 510 1210 0.740 10000.000 0.000 0.000 0.000 0.000 1.000
74 222.00 1500.01 513 1223 0.740 10000.000 0.000 0.000 0.000 0.000 1.000
75 225.00 1500.01 492 1211 0.740 10000.000 0.000 0.000 0.000 0.000 1.000
76 228.00 1500.01 516 1274 0.740 10000.000 0.000 0.000 0.000 0.000 1.000
77 231.00 1500.01 504 1214 0.740 10000.000 0.000 0.000 0.000 0.000 1.000
78 234.00 1500.01 534 1286 0.740 10000.000 0.000 0.000 0.000 0.000 1.000
79 237.00 1500.01 517 1304 0.740 10000.000 0.000 0.000 0.000 0.000 1.000
80 240.00 1500.01 447 1247 0.740 10000.000 0.000 0.000 0.000 0.000 1.000
81 243.00 1500.01 512 1373 0.740 10000.000 0.000 0.000 0.000 0.000 1.000
82 246.00 1500.01 464 1323 0.740 10000.000 0.000 0.000 0.000 0.000 1.000
83 249.00 1500.01 533 1307 0.740 10000.000 0.000 0.000 0.000 0.000 1.000
84 252.00 1500.01 536 1252 0.740 10000.000 0.000 0.000 0.000 0.000 1.000
85 255.00 1500.01 499 1329 0.740 10000.000 0.000 0.000 0.000 0.000 1.000
86 258.00 1500.01 494 1299 0.740 10000.000 0.000 0.000 0.000 0.000 1.000
87 261.00 1500.01 503 1260 0.740 10000.000 0.000 0.000 0.000 0.000 1.000
88 264.00 1500.01 508 1235 0.740 10000.000 0.000 0.000 0.000 0.000 1.000
89 267.00 1500.01 465 1260 0.740 10000.000 0.000 0.000 0.000 0.000 1.000
90 270.00 1500.01 533 1214 0.740 10000.000 0.000 0.000 0.000 0.000 1.000
91 273.00 1500.01 519 1290 0.740 10000.000 0.000 0.000 0.000 0.000 1.000
92 276.00 1500.01 505 1240 0.740 10000.000 0.000 0.000 0.000 0.000 1.000
93 279.00 1500.01 473 1280 0.740 10000.000 0.000 0.000 0.000 0.000 1.000
94 282.00 1500.01 527 1195 0.740 10000.000 0.000 0.000 0.000 0.000 1.000
95 285.00 1500.01 478 1280 0.740 10000.000 0.000 0.000 0.000 0.000 1.000
96 288.00 1500.01 477 1270 0.740 10000.000 0.000 0.000 0.000 0.000 1.000
97 291.00 1500.01 543 1304 0.740 10000.000 0.000 0.000 0.000 0.000 1.000
98 294.00 1500.01 502 1239 0.740 10000.000 0.000 0.000 0.000 0.000 1.000
99 297.00 1500.01 531 1221 0.740 10000.000 0.000 0.000 0.000 0.000 1.000
100 300.00 1500.01 498 1333 0.740 10000.000 0.000 0.000 0.000 0.000 1.000
101 303.00 1500.01 506 1257 0.740 10000.000 0.000 0.000 0.000 0.000 1.000
102 306.00 1500.01 475 1289 0.740 10000.000 0.000 0.000 0.000 0.000 1.000
103 309.00 1500.01 477 1263 0.740 10000.000 0.000 0.000 0.000 0.000 1.000
104 312.00 1500.01 504 1212 0.740 10000.000 0.000 0.000 0.000 0.000 1.000
105 315.00 1500.01 534 1232 0.740 10000.000 0.000 0.000 0.000 0.000 1.000
106 318.00 1500.01 537 1178 0.740 10000.000 0.000 0.000 0.000 0.000 1.000
107 321.00 1500.01 485 1266 0.740 10000.000 0.000 0.000 0.000 0.000 1.000
108 324.00 1500.01 512 1155 0.740 10000.000 0.000 0.000 0.000 0.000 1.000
109 327.00 1500.01 502 1186 0.740 10000.000 0.000 0.000 0.000 0.000 1.000
110 330.00 1500.01 527 1221 0.740 10000.000 0.000 0.000 0.000 0.000 1.000
111 333.00 1500.01 467 1233 0.740 10000.000 0.000 0.000 0.000 0.000 1.000
112 336.00 1500.01 504 1293 0.740 10000.000 0.000 0.000 0.000 0.000 1.000
113 339.00 1500.01 496 1266 0.740 10000.000 0.000 0.000 0.000 0.000 1.000
114 342.00 1500.01 501 1328 0.740 10000.000 0.000 0.000 0.000 0.000 1.000
115 345.00 1500.01 466 1264 0.740 10000.000 0.000 0.000 0.000 0.000 1.000
116 348.00 1500.01 510 1297 0.740 10000.000 0.000 0.000 0.000 0.000 1.000
117 351.00 1500.01 500 1196 0.740 10000.000 0.000 0.000 0.000 0.000 1.000
118 354.00 1500.01 462 1288 0.740 10000.000 0.000 0.000 0.000 0.000 1.000
119 357.00 1500.01 508 1234 0.740 10000.000 0.000 0.000 0.000 0.000 1.000
120 360.00 1500.01 505 1300 0.740 10000.000 0.000 0.000 0.000 0.000 1.000
121 363.00 1500.01 513 1347 0.740 10000.000 0.000 0.000 0.000 0.000 1.000
122 366.00 1500.01 510 1244 0.740 10000.000 0.000 0.000 0.000 0.000 1.000
123 369.00 1500.01 525 1236 0.740 10000.000 0.000 0.000 0.000 0.000 1.000
124 372.00 1500.01 518 1276 0.740 10000.000 0.000 0.000 0.000 0.000 1.000
125 375.00 1500.01 499 1217 0.740 10000.000 0.000 0.000 0.000 0.000 1.000
126 378.00 1500.01 480 1236 0.740 10000.000 0.000 0.000 0.000 0.000 1.000
127 381.00 1500.01 516 1182 0.740 10000.000 0.000 0.000 0.000 0.000 1.000
128 384.00 1500.01 492 1288 0.740 10000.000 0.000 0.000 0.000 0.000 1.000
129 387.00 1500.01 496 1210 0.740 10000.000 0.000 0.000 0.000 0.000 1.000
130 390.00 1500.01 495 1260 0.740 10000.000 0.000 0.000 0.000 0.000 1.000
131 393.00 1500.01 479 1234 0.740 10000.000 0.000 0.000 0.000 0.000 1.000
132 396.00 1500.01 506 1287 0.740 10000.000 0.000 0.000 0.000 0.000 1.000
133 399.00 1500.01 495 1287 0.740 10000.000 0.000 0.000 0.000 0.000 1.000
134 402.00 1500.01 482 1301 0.740 10000.000 0.000 0.000 0.000 0.000 1.000
135 405.00 1500.01 487 1221 0.740 10000.000 0.000 0.000 0.000 0.000 1.000
136 408.00 1500.01 514 1302 0.740 10000.000 0.000 0.000 0.000 0.000 1.000
137 411.00 1500.01 462 1224 0.740 10000.000 0.000 0.000 0.000 0.000 1.000
138 414.00 1500.01 504 1214 0.740 10000.000 0.000 0.000 0.000 0.000 1.000
139 417.00 1500.01 547 1219 0.740 10000.000 0.000 0.000 0.000 0.000 1.000
140 420.00 1500.01 513 1190 0.740 10000.000 0.000 0.000 0.000 0.000 1.000
141 423.00 1500.01 509 1275 0.740 10000.000 0.000 0.000 0.000 0.000 1.000
142 426.00 1500.01 513 1290 0.740 10000.000 0.000 0.000 0.000 0.000 1.000
143 429.00 1500.01 502 1224 0.740 10000.000 0.000 0.000 0.000 0.000 1.000
144 432.00 1500.01 521 1306 0.740 10000.000 0.000 0.000 0.000 0.000 1.000
