# BinNR microsec tot-time (s)  O-Beam AUX Ampl_1(V) f_1(Hz) phase_1(deg) Ampl_2(V) f_2(Hz) phase_2(deg) chi(pos)
0 0.00 1500.01 401 889 0.740 10000.000 0.000 0.000 0.000 0.000 0.330
1 3.00 1500.01 828 1719 0.740 10000.000 0.000 0.000 0.000 0.000 0.330
2 6.00 1500.01 823 1666 0.740 10000.000 0.000 0.000 0.000 0.000 0.330
3 9.00 1500.01 788 1753 0.740 10000.000 0.000 0.000 0.000 0.000 0.330
4 12.00 1500.01 835 1771 0.740 10000.000 0.000 0.000 0.000 0.000 0.330
5 15.00 1500.01 829 1721 0.740 10000.000 0.000 0.000 0.000 0.000 0.330
6 18.00 1500.01 823 1763 0.740 10000.000 0.000 0.000 0.000 0.000 0.330
7 21.00 1500.01 791 1684 0.740 10000.000 0.000 0.000 0.000 0.000 0.330
8 24.00 1500.01 809 1711 0.740 10000.000 0.000 0.000 0.000 0.000 0.330
9 27.00 1500.01 806 1668 0.740 10000.000 0.000 0.000 0.000 0.000 0.330
10 30.00 1500.01 795 1814 0.740 10000.000 0.000 0.000 0.000 0.000 0.330
11 33.00 1500.01 824 1594 0.740 10000.000 0.000 0.000 0.000 0.000 0.330
12 36.00 1500.01 842 1719 0.740 10000.000 0.000 0.000 0.000 0.000 0.330
13 39.00 1500.01 791 1690 0.740 10000.000 0.000 0.000 0.000 0.000 0.330
14 42.00 1500.01 837 1724 0.740 10000.000 0.000 0.000 0.000 0.000 0.330
15 45.00 1500.01 861 1717 0.740 10000.000 0.000 0.000 0.000 0.000 0.330
16 48.00 1500.01 890 1761 0.740 10000.000 0.000 0.000 0.000 0.000 0.330
17 51.00 1500.01 815 1701 0.740 10000.000 0.000 0.000 0.000 0.000 0.330
18 54.00 1500.01 841 1897 0.740 10000.000 0.000 0.000 0.000 0.000 0.330
19 57.00 1500.01 871 1791 0.740 10000.000 0.000 0.000 0.000 0.000 0.330
20 60.00 1500.01 841 1757 0.740 10000.000 0.000 0.000 0.000 0.000 0.330
21 63.00 1500.01 832 1733 0.740 10000.000 0.000 0.000 0.000 0.000 0.330
22 66.00 1500.01 806 1815 0.740 10000.000 0.000 0.000 0.000 0.000 0.330
23 69.00 1500.01 825 1690 0.740 10000.000 0.000 0.000 0.000 0.000 0.330
24 72.00 1500.01 881 1723 0.740 10000.000 0.000 0.000 0.000 0.000 0.330
25 75.00 1500.01 850 1689 0.740 10000.000 0.000 0.000 0.000 0.000 0.330
26 78.00 1500.01 869 1795 0.740 10000.000 0.000 0.000 0.000 0.000 0.330
27 81.00 1500.01 805 1787 0.740 10000.000 0.000 0.000 0.000 0.000 0.330
28 84.00 1500.01 854 1706 0.740 10000.000 0.000 0.000 0.000 0.000 0.330
29 87.00 1500.01 869 1686 0.740 10000.000 0.000 0.000 0.000 0.000 0.330
30 90.00 1500.01 861 1760 0.740 10000.000 0.000 0.000 0.000 0.000 0.330
31 93.00 1500.01 841 1749 0.740 10000.000 0.000 0.000 0.000 0.000 0.330
32 96.00 1500.01 812 1724 0.740 10000.000 0.000 0.000 0.000 0.000 0.330
33 99.00 1500.01 826 1703 0.740 10000.000 0.000 0.000 0.000 0.000 0.330
34 102.00 1500.01 847 1724 0.740 10000.000 0.000 0.000 0.000 0.000 0.330
35 105.00 1500.01 816 1652 0.740 10000.000 0.000 0.000 0.000 0.000 0.330
36 108.00 1500.01 891 1797 0.740 10000.000 0.000 0.000 0.000 0.000 0.330
37 111.00 1500.01 799 1790 0.740 10000.000 0.000 0.000 0.000 0.000 0.330
38 114.00 1500.01 843 1755 0.740 10000.000 0.000 0.000 0.000 0.000 0.330
39 117.00 1500.01 814 1677 0.740 10000.000 0.000 0.000 0.000 0.000 0.330
40 120.00 1500.01 857 1682 0.740 10000.000 0.000 0.000 0.000 0.000 0.330
41 123.00 1500.01 869 1700 0.740 10000.000 0.000 0.000 0.000 0.000 0.330
42 126.00 1500.01 845 1693 0.740 10000.000 0.000 0.000 0.000 0.000 0.330
43 129.00 1500.01 846 1786 0.740 10000.000 0.000 0.000 0.000 0.000 0.330
44 132.00 1500.01 831 1767 0.740 10000.000 0.000 0.000 0.000 0.000 0.330
45 135.00 1500.01 815 1670 0.740 10000.000 0.000 0.000 0.000 0.000 0.330
46 138.00 1500.01 804 1821 0.740 10000.000 0.000 0.000 0.000 0.000 0.330
47 141.00 1500.01 837 1762 0.740 10000.000 0.000 0.000 0.000 0.000 0.330
48 144.00 1500.01 826 1789 0.740 10000.000 0.000 0.000 0.000 0.000 0.330
49 147.00 1500.01 856 1705 0.740 10000.000 0.000 0.000 0.000 0.000 0.330
50 150.00 1500.01 855 1762 0.740 10000.000 0.000 0.000 0.000 0.000 0.330
51 153.00 1500.01 876 1747 0.740 10000.000 0.000 0.000 0.000 0.000 0.330
52 156.00 1500.01 877 1759 0.740 10000.000 0.000 0.000 0.000 0.000 0.330
53 159.00 1500.01 782 1800 0.740 10000.000 0.000 0.000 0.000 0.000 0.330
54 162.00 1500.01 843 1766 0.740 10000.000 0.000 0.000 0.000 0.000 0.330
55 165.00 1500.01 805 1664 0.740 10000.000 0.000 0.000 0.000 0.000 0.330
56 168.00 1500.01 785 1715 0.740 10000.000 0.000 0.000 0.000 0.000 0.330
57 171.00 1500.01 797 1681 0.740 10000.000 0.000 0.000 0.000 0.000 0.330
58 174.00 1500.01 882 1827 0.740 10000.000 0.000 0.000 0.000 0.000 0.330
59 177.00 1500.01 845 1767 0.740 10000.000 0.000 0.000 0.000 0.000 0.330
60 180.00 1500.01 823 1762 0.740 10000.000 0.000 0.000 0.000 0.000 0.330
61 183.00 1500.01 807 1747 0.740 10000.000 0.000 0.000 0.000 0.000 0.330
62 186.00 1500.01 846 1676 0.740 10000.000 0.000 0.000 0.000 0.000 0.330
63 189.00 1500.01 818 1695 0.740 10000.000 0.000 0.000 0.000 0.000 0.330
64 192.00 1500.01 804 1731 0.740 10000.000 0.000 0.000 0.000 0.000 0.330
65 195.00 1500.01 789 1689 0.740 10000.000 0.000 0.000 0.000 0.000 0.330
66 198.00 1500.01 843 1796 0.740 10000.000 0.000 0.000 0.000 0.000 0.330
67 201.00 1500.01 845 1734 0.740 10000.000 0.000 0.000 0.000 0.000 0.330
68 204.00 1500.01 836 1765 0.740 10000.000 0.000 0.000 0.000 0.000 0.330
69 207.00 1500.01 763 1665 0.740 10000.000 0.000 0.000 0.000 0.000 0.330
70 210.00 1500.01 866 1813 0.740 10000.000 0.000 0.000 0.000 0.000 0.330
71 213.00 1500.01 816 1622 0.740 10000.000 0.000 0.000 0.000 0.000 0.330
72 216.00 1500.01 812 1797 0.740 10000.000 0.000 0.000 0.000 0.000 0.330
73 219.00 1500.01 831 1725 0.740 10000.000 0.000 0.000 0.000 0.000 0.330
74 222.00 1500.01 837 1780 0.740 10000.000 0.000 0.000 0.000 0.000 0.330
75 225.00 1500.01 831 1719 0.740 10000.000 0.000 0.000 0.000 0.000 0.330
76 228.00 1500.01 817 1798 0.740 10000.000 0.000 0.000 0.000 0.000 0.330
77 231.00 1500.01 864 1696 0.740 10000.000 0.000 0.000 0.000 0.000 0.330
78 234.00 1500.01 817 1749 0.740 10000.000 0.000 0.000 0.000 0.000 0.330
79 237.00 1500.01 846 1791 0.740 10000.000 0.000 0.000 0.000 0.000 0.330
80 240.00 1500.01 791 1718 0.740 10000.000 0.000 0.000 0.000 0.000 0.330
81 243.00 1500.01 819 1778 0.740 10000.000 0.000 0.000 0.000 0.000 0.330
82 246.00 1500.01 817 1738 0.740 10000.000 0.000 0.000 0.000 0.000 0.330
83 249.00 1500.01 911 1769 0.740 10000.000 0.000 0.000 0.000 0.000 0.330
84 252.00 1500.01 862 1766 0.740 10000.000 0.000 0.000 0.000 0.000 0.330
85 255.00 1500.01 803 1735 0.740 10000.000 0.000 0.000 0.000 0.000 0.330
86 258.00 1500.01 886 1759 0.740 10000.000 0.000 0.000 0.000 0.000 0.330
87 261.00 1500.01 851 1752 0.740 10000.000 0.000 0.000 0.000 0.000 0.330
88 264.00 1500.01 858 1737 0.740 10000.000 0.000 0.000 0.000 0.000 0.330
89 267.00 1500.01 848 1630 0.740 10000.000 0.000 0.000 0.000 0.000 0.330
90 270.00 1500.01 837 1792 0.740 10000.000 0.000 0.000 0.000 0.000 0.330
91 273.00 1500.01 814 1748 0.740 10000.000 0.000 0.000 0.000 0.000 0.330
92 276.00 1500.01 816 1726 0.740 10000.000 0.000 0.000 0.000 0.000 0.330
93 279.00 1500.01 805 1729 0.740 10000.000 0.000 0.000 0.000 0.000 0.330
94 282.00 1500.01 823 1795 0.740 10000.000 0.000 0.000 0.000 0.000 0.330
95 285.00 1500.01 802 1660 0.740 10000.000 0.000 0.000 0.000 0.000 0.330
96 288.00 1500.01 827 1803 0.740 10000.000 0.000 0.000 0.000 0.000 0.330
97 291.00 1500.01 868 1742 0.740 10000.000 0.000 0.000 0.000 0.000 0.330
98 294.00 1500.01 838 1832 0.740 10000.000 0.000 0.000 0.000 0.000 0.330
99 297.00 1500.01 772 1713 0.740 10000.000 0.000 0.000 0.000 0.000 0.330
100 300.00 1500.01 897 1768 0.740 10000.000 0.000 0.000 0.000 0.000 0.330
101 303.00 1500.01 838 1739 0.740 10000.000 0.000 0.000 0.000 0.000 0.330
102 306.00 1500.01 819 1764 0.740 10000.000 0.000 0.000 0.000 0.000 0.330
103 309.00 1500.01 835 1772 0.740 10000.000 0.000 0.000 0.000 0.000 0.330
104 312.00 1500.01 879 1702 0.740 10000.000 0.000 0.000 0.000 0.000 0.330
105 315.00 1500.01 784 1716 0.740 10000.000 0.000 0.000 0.000 0.000 0.330
106 318.00 1500.01 806 1781 0.740 10000.000 0.000 0.000 0.000 0.000 0.330
107 321.00 1500.01 849 1708 0.740 10000.000 0.000 0.000 0.000 0.000 0.330
108 324.00 1500.01 872 1752 0.740 10000.000 0.000 0.000 0.000 0.000 0.330
109 327.00 1500.01 827 1702 0.740 10000.000 0.000 0.000 0.000 0.000 0.330
110 330.00 1500.01 871 1768 0.740 10000.000 0.000 0.000 0.000 0.000 0.330
111 333.00 1500.01 853 1711 0.740 10000.000 0.000 0.000 0.000 0.000 0.330
112 336.00 1500.01 908 1747 0.740 10000.000 0.000 0.000 0.000 0.000 0.330
113 339.00 1500.01 793 1730 0.740 10000.000 0.000 0.000 0.000 0.000 0.330
114 342.00 1500.01 857 1793 0.740 10000.000 0.000 0.000 0.000 0.000 0.330
115 345.00 1500.01 841 1751 0.740 10000.000 0.000 0.000 0.000 0.000 0.330
116 348.00 1500.01 853 1796 0.740 10000.000 0.000 0.000 0.000 0.000 0.330
117 351.00 1500.01 811 1715 0.740 10000.000 0.000 0.000 0.000 0.000 0.330
118 354.00 1500.01 808 1782 0.740 10000.000 0.000 0.000 0.000 0.000 0.330
119 357.00 1500.01 849 1665 0.740 10000.000 0.000 0.000 0.000 0.000 0.330
120 360.00 1500.01 853 1772 0.740 10000.000 0.000 0.000 0.000 0.000 0.330
121 363.00 1500.01 850 1764 0.740 10000.000 0.000 0.000 0.000 0.000 0.330
122 366.00 1500.01 799 1755 0.740 10000.000 0.000 0.000 0.000 0.000 0.330
123 369.00 1500.01 850 1707 0.740 10000.000 0.000 0.000 0.000 0.000 0.330
124 372.00 1500.01 826 1715 0.740 10000.000 0.000 0.000 0.000 0.000 0.330
125 375.00 1500.01 815 1693 0.740 10000.000 0.000 0.000 0.000 0.000 0.330
126 378.00 1500.01 814 1683 0.740 10000.000 0.000 0.000 0.000 0.000 0.330
127 381.00 1500.01 843 1713 0.740 10000.000 0.000 0.000 0.000 0.000 0.330
128 384.00 1500.01 822 1815 0.740 10000.000 0.000 0.000 0.000 0.000 0.330
129 387.00 1500.01 833 1791 0.740 10000.000 0.000 0.000 0.000 0.000 0.330
130 390.00 1500.01 834 1721 0.740 10000.000 0.000 0.000 0.000 0.000 0.330
131 393.00 1500.01 827 1763 0.740 10000.000 0.000 0.000 0.000 0.000 0.330
132 396.00 1500.01 894 1778 0.740 10000.000 0.000 0.000 0.000 0.000 0.330
133 399.00 1500.01 826 1747 0.740 10000.000 0.000 0.000 0.000 0.000 0.330
134 402.00 1500.01 791 1734 0.740 10000.000 0.000 0.000 0.000 0.000 0.330
135 405.00 1500.01 819 1796 0.740 10000.000 0.000 0.000 0.000 0.000 0.330
136 408.00 1500.01 833 1776 0.740 10000.000 0.000 0.000 0.000 0.000 0.330
137 411.00 1500.01 836 1674 0.740 10000.000 0.000 0.000 0.000 0.000 0.330
138 414.00 1500.01 874 1751 0.740 10000.000 0.000 0.000 0.000 0.000 0.330
139 417.00 1500.01 773 1713 0.740 10000.000 0.000 0.000 0.000 0.000 0.330
140 420.00 1500.01 798 1695 0.740 10000.000 0.000 0.000 0.000 0.000 0.330
141 423.00 1500.01 814 1691 0.740 10000.000 0.000 0.000 0.000 0.000 0.330
142 426.00 1500.01 870 1724 0.740 10000.000 0.000 0.000 0.000 0.000 0.330
143 429.00 1500.01 843 1721 0.740 10000.000 0.000 0.000 0.000 0.000 0.330
144 432.00 1500.01 803 1727 0.740 10000.000 0.000 0.000 0.000 0.000 0.330
