# BinNR microsec tot-time (s)  O-Beam AUX Ampl_1(V) f_1(Hz) phase_1(deg) Ampl_2(V) f_2(Hz) phase_2(deg) chi(pos)
0 0.00 1200.01 106 194 1.500 10000.000 0.000 1.000 15000.000 0.000 0.703
1 3.00 1200.01 164 397 1.500 10000.000 0.000 1.000 15000.000 0.000 0.703
2 6.00 1200.01 168 458 1.500 10000.000 0.000 1.000 15000.000 0.000 0.703
3 9.00 1200.01 144 493 1.500 10000.000 0.000 1.000 15000.000 0.000 0.703
4 12.00 1200.01 118 507 1.500 10000.000 0.000 1.000 15000.000 0.000 0.703
5 15.00 1200.01 95 484 1.500 10000.000 0.000 1.000 15000.000 0.000 0.703
6 18.00 1200.01 101 482 1.500 10000.000 0.000 1.000 15000.000 0.000 0.703
7 21.00 1200.01 119 484 1.500 10000.000 0.000 1.000 15000.000 0.000 0.703
8 24.00 1200.01 136 458 1.500 10000.000 0.000 1.000 15000.000 0.000 0.703
9 27.00 1200.01 130 397 1.500 10000.000 0.000 1.000 15000.000 0.000 0.703
10 30.00 1200.01 135 398 1.500 10000.000 0.000 1.000 15000.000 0.000 0.703
11 33.00 1200.01 152 351 1.500 10000.000 0.000 1.000 15000.000 0.000 0.703
12 36.00 1200.01 206 325 1.500 10000.000 0.000 1.000 15000.000 0.000 0.703
13 39.00 1200.01 198 335 1.500 10000.000 0.000 1.000 15000.000 0.000 0.703
14 42.00 1200.01 245 355 1.500 10000.000 0.000 1.000 15000.000 0.000 0.703
15 45.00 1200.01 285 366 1.500 10000.000 0.000 1.000 15000.000 0.000 0.703
16 48.00 1200.01 261 338 1.500 10000.000 0.000 1.000 15000.000 0.000 0.703
17 51.00 1200.01 217 378 1.500 10000.000 0.000 1.000 15000.000 0.000 0.703
18 54.00 1200.01 279 459 1.500 10000.000 0.000 1.000 15000.000 0.000 0.703
19 57.00 1200.01 286 517 1.500 10000.000 0.000 1.000 15000.000 0.000 0.703
20 60.00 1200.01 332 630 1.500 10000.000 0.000 1.000 15000.000 0.000 0.703
21 63.00 1200.01 290 672 1.500 10000.000 0.000 1.000 15000.000 0.000 0.703
22 66.00 1200.01 293 778 1.500 10000.000 0.000 1.000 15000.000 0.000 0.703
23 69.00 1200.01 281 796 1.500 10000.000 0.000 1.000 15000.000 0.000 0.703
24 72.00 1200.01 289 825 1.500 10000.000 0.000 1.000 15000.000 0.000 0.703
25 75.00 1200.01 284 896 1.500 10000.000 0.000 1.000 15000.000 0.000 0.703
26 78.00 1200.01 228 938 1.500 10000.000 0.000 1.000 15000.000 0.000 0.703
27 81.00 1200.01 210 935 1.500 10000.000 0.000 1.000 15000.000 0.000 0.703
28 84.00 1200.01 212 838 1.500 10000.000 0.000 1.000 15000.000 0.000 0.703
29 87.00 1200.01 192 839 1.500 10000.000 0.000 1.000 15000.000 0.000 0.703
30 90.00 1200.01 176 720 1.500 10000.000 0.000 1.000 15000.000 0.000 0.703
31 93.00 1200.01 161 665 1.500 10000.000 0.000 1.000 15000.000 0.000 0.703
32 96.00 1200.01 197 600 1.500 10000.000 0.000 1.000 15000.000 0.000 0.703
33 99.00 1200.01 181 454 1.500 10000.000 0.000 1.000 15000.000 0.000 0.703
34 102.00 1200.01 180 355 1.500 10000.000 0.000 1.000 15000.000 0.000 0.703
35 105.00 1200.01 191 258 1.500 10000.000 0.000 1.000 15000.000 0.000 0.703
36 108.00 1200.01 196 218 1.500 10000.000 0.000 1.000 15000.000 0.000 0.703
37 111.00 1200.01 218 144 1.500 10000.000 0.000 1.000 15000.000 0.000 0.703
38 114.00 1200.01 205 147 1.500 10000.000 0.000 1.000 15000.000 0.000 0.703
39 117.00 1200.01 185 116 1.500 10000.000 0.000 1.000 15000.000 0.000 0.703
40 120.00 1200.01 186 135 1.500 10000.000 0.000 1.000 15000.000 0.000 0.703
41 123.00 1200.01 165 149 1.500 10000.000 0.000 1.000 15000.000 0.000 0.703
42 126.00 1200.01 171 180 1.500 10000.000 0.000 1.000 15000.000 0.000 0.703
43 129.00 1200.01 202 200 1.500 10000.000 0.000 1.000 15000.000 0.000 0.703
44 132.00 1200.01 196 312 1.500 10000.000 0.000 1.000 15000.000 0.000 0.703
45 135.00 1200.01 162 357 1.500 10000.000 0.000 1.000 15000.000 0.000 0.703
46 138.00 1200.01 168 490 1.500 10000.000 0.000 1.000 15000.000 0.000 0.703
47 141.00 1200.01 160 634 1.500 10000.000 0.000 1.000 15000.000 0.000 0.703
48 144.00 1200.01 172 764 1.500 10000.000 0.000 1.000 15000.000 0.000 0.703
49 147.00 1200.01 160 795 1.500 10000.000 0.000 1.000 15000.000 0.000 0.703
50 150.00 1200.01 203 804 1.500 10000.000 0.000 1.000 15000.000 0.000 0.703
51 153.00 1200.01 192 927 1.500 10000.000 0.000 1.000 15000.000 0.000 0.703
52 156.00 1200.01 208 871 1.500 10000.000 0.000 1.000 15000.000 0.000 0.703
53 159.00 1200.01 226 924 1.500 10000.000 0.000 1.000 15000.000 0.000 0.703
54 162.00 1200.01 233 895 1.500 10000.000 0.000 1.000 15000.000 0.000 0.703
55 165.00 1200.01 255 804 1.500 10000.000 0.000 1.000 15000.000 0.000 0.703
56 168.00 1200.01 260 737 1.500 10000.000 0.000 1.000 15000.000 0.000 0.703
57 171.00 1200.01 287 695 1.500 10000.000 0.000 1.000 15000.000 0.000 0.703
58 174.00 1200.01 275 665 1.500 10000.000 0.000 1.000 15000.000 0.000 0.703
59 177.00 1200.01 304 555 1.500 10000.000 0.000 1.000 15000.000 0.000 0.703
60 180.00 1200.01 336 457 1.500 10000.000 0.000 1.000 15000.000 0.000 0.703
61 183.00 1200.01 336 429 1.500 10000.000 0.000 1.000 15000.000 0.000 0.703
62 186.00 1200.01 319 354 1.500 10000.000 0.000 1.000 15000.000 0.000 0.703
63 189.00 1200.01 273 349 1.500 10000.000 0.000 1.000 15000.000 0.000 0.703
64 192.00 1200.01 288 355 1.500 10000.000 0.000 1.000 15000.000 0.000 0.703
65 195.00 1200.01 260 360 1.500 10000.000 0.000 1.000 15000.000 0.000 0.703
66 198.00 1200.01 200 363 1.500 10000.000 0.000 1.000 15000.000 0.000 0.703
67 201.00 1200.01 219 406 1.500 10000.000 0.000 1.000 15000.000 0.000 0.703
68 204.00 1200.01 159 383 1.500 10000.000 0.000 1.000 15000.000 0.000 0.703
69 207.00 1200.01 157 446 1.500 10000.000 0.000 1.000 15000.000 0.000 0.703
70 210.00 1200.01 141 452 1.500 10000.000 0.000 1.000 15000.000 0.000 0.703
71 213.00 1200.01 118 506 1.500 10000.000 0.000 1.000 15000.000 0.000 0.703
72 216.00 1200.01 115 475 1.500 10000.000 0.000 1.000 15000.000 0.000 0.703
73 219.00 1200.01 108 488 1.500 10000.000 0.000 1.000 15000.000 0.000 0.703
74 222.00 1200.01 110 497 1.500 10000.000 0.000 1.000 15000.000 0.000 0.703
75 225.00 1200.01 136 474 1.500 10000.000 0.000 1.000 15000.000 0.000 0.703
76 228.00 1200.01 139 439 1.500 10000.000 0.000 1.000 15000.000 0.000 0.703
77 231.00 1200.01 173 387 1.500 10000.000 0.000 1.000 15000.000 0.000 0.703
78 234.00 1200.01 152 348 1.500 10000.000 0.000 1.000 15000.000 0.000 0.703
79 237.00 1200.01 211 332 1.500 10000.000 0.000 1.000 15000.000 0.000 0.703
80 240.00 1200.01 215 347 1.500 10000.000 0.000 1.000 15000.000 0.000 0.703
81 243.00 1200.01 239 333 1.500 10000.000 0.000 1.000 15000.000 0.000 0.703
82 246.00 1200.01 288 365 1.500 10000.000 0.000 1.000 15000.000 0.000 0.703
83 249.00 1200.01 255 389 1.500 10000.000 0.000 1.000 15000.000 0.000 0.703
84 252.00 1200.01 304 377 1.500 10000.000 0.000 1.000 15000.000 0.000 0.703
85 255.00 1200.01 311 446 1.500 10000.000 0.000 1.000 15000.000 0.000 0.703
86 258.00 1200.01 287 553 1.500 10000.000 0.000 1.000 15000.000 0.000 0.703
87 261.00 1200.01 305 653 1.500 10000.000 0.000 1.000 15000.000 0.000 0.703
88 264.00 1200.01 285 738 1.500 10000.000 0.000 1.000 15000.000 0.000 0.703
89 267.00 1200.01 282 746 1.500 10000.000 0.000 1.000 15000.000 0.000 0.703
90 270.00 1200.01 265 832 1.500 10000.000 0.000 1.000 15000.000 0.000 0.703
91 273.00 1200.01 262 852 1.500 10000.000 0.000 1.000 15000.000 0.000 0.703
92 276.00 1200.01 284 987 1.500 10000.000 0.000 1.000 15000.000 0.000 0.703
93 279.00 1200.01 241 941 1.500 10000.000 0.000 1.000 15000.000 0.000 0.703
94 282.00 1200.01 253 933 1.500 10000.000 0.000 1.000 15000.000 0.000 0.703
95 285.00 1200.01 224 905 1.500 10000.000 0.000 1.000 15000.000 0.000 0.703
96 288.00 1200.01 217 813 1.500 10000.000 0.000 1.000 15000.000 0.000 0.703
97 291.00 1200.01 182 699 1.500 10000.000 0.000 1.000 15000.000 0.000 0.703
98 294.00 1200.01 187 634 1.500 10000.000 0.000 1.000 15000.000 0.000 0.703
99 297.00 1200.01 161 539 1.500 10000.000 0.000 1.000 15000.000 0.000 0.703
100 300.00 1200.01 188 396 1.500 10000.000 0.000 1.000 15000.000 0.000 0.703
101 303.00 1200.01 191 319 1.500 10000.000 0.000 1.000 15000.000 0.000 0.703
102 306.00 1200.01 190 238 1.500 10000.000 0.000 1.000 15000.000 0.000 0.703
103 309.00 1200.01 190 203 1.500 10000.000 0.000 1.000 15000.000 0.000 0.703
104 312.00 1200.01 186 150 1.500 10000.000 0.000 1.000 15000.000 0.000 0.703
105 315.00 1200.01 196 152 1.500 10000.000 0.000 1.000 15000.000 0.000 0.703
106 318.00 1200.01 181 151 1.500 10000.000 0.000 1.000 15000.000 0.000 0.703
107 321.00 1200.01 183 139 1.500 10000.000 0.000 1.000 15000.000 0.000 0.703
108 324.00 1200.01 202 143 1.500 10000.000 0.000 1.000 15000.000 0.000 0.703
109 327.00 1200.01 186 173 1.500 10000.000 0.000 1.000 15000.000 0.000 0.703
110 330.00 1200.01 185 220 1.500 10000.000 0.000 1.000 15000.000 0.000 0.703
111 333.00 1200.01 200 293 1.500 10000.000 0.000 1.000 15000.000 0.000 0.703
112 336.00 1200.01 188 412 1.500 10000.000 0.000 1.000 15000.000 0.000 0.703
113 339.00 1200.01 189 535 1.500 10000.000 0.000 1.000 15000.000 0.000 0.703
114 342.00 1200.01 157 709 1.500 10000.000 0.000 1.000 15000.000 0.000 0.703
115 345.00 1200.01 162 756 1.500 10000.000 0.000 1.000 15000.000 0.000 0.703
116 348.00 1200.01 203 809 1.500 10000.000 0.000 1.000 15000.000 0.000 0.703
117 351.00 1200.01 197 872 1.500 10000.000 0.000 1.000 15000.000 0.000 0.703
118 354.00 1200.01 201 850 1.500 10000.000 0.000 1.000 15000.000 0.000 0.703
119 357.00 1200.01 216 913 1.500 10000.000 0.000 1.000 15000.000 0.000 0.703
120 360.00 1200.01 215 910 1.500 10000.000 0.000 1.000 15000.000 0.000 0.703
121 363.00 1200.01 252 799 1.500 10000.000 0.000 1.000 15000.000 0.000 0.703
122 366.00 1200.01 261 846 1.500 10000.000 0.000 1.000 15000.000 0.000 0.703
123 369.00 1200.01 277 734 1.500 10000.000 0.000 1.000 15000.000 0.000 0.703
124 372.00 1200.01 281 654 1.500 10000.000 0.000 1.000 15000.000 0.000 0.703
125 375.00 1200.01 302 614 1.500 10000.000 0.000 1.000 15000.000 0.000 0.703
126 378.00 1200.01 289 509 1.500 10000.000 0.000 1.000 15000.000 0.000 0.703
127 381.00 1200.01 294 449 1.500 10000.000 0.000 1.000 15000.000 0.000 0.703
128 384.00 1200.01 300 415 1.500 10000.000 0.000 1.000 15000.000 0.000 0.703
129 387.00 1200.01 284 352 1.500 10000.000 0.000 1.000 15000.000 0.000 0.703
130 390.00 1200.01 307 374 1.500 10000.000 0.000 1.000 15000.000 0.000 0.703
131 393.00 1200.01 272 345 1.500 10000.000 0.000 1.000 15000.000 0.000 0.703
132 396.00 1200.01 258 360 1.500 10000.000 0.000 1.000 15000.000 0.000 0.703
133 399.00 1200.01 194 320 1.500 10000.000 0.000 1.000 15000.000 0.000 0.703
