# BinNR microsec tot-time (s)  O-Beam AUX Ampl_1(V) f_1(Hz) phase_1(deg) Ampl_2(V) f_2(Hz) phase_2(deg) chi(pos)
0 0.00 1500.05 58 78 0.370 10000.000 0.000 0.300 15000.000 0.000 0.648
1 3.00 1500.05 107 178 0.370 10000.000 0.000 0.300 15000.000 0.000 0.648
2 6.00 1500.05 117 166 0.370 10000.000 0.000 0.300 15000.000 0.000 0.648
3 9.00 1500.05 108 164 0.370 10000.000 0.000 0.300 15000.000 0.000 0.648
4 12.00 1500.05 112 182 0.370 10000.000 0.000 0.300 15000.000 0.000 0.648
5 15.00 1500.05 105 173 0.370 10000.000 0.000 0.300 15000.000 0.000 0.648
6 18.00 1500.05 112 166 0.370 10000.000 0.000 0.300 15000.000 0.000 0.648
7 21.00 1500.05 118 138 0.370 10000.000 0.000 0.300 15000.000 0.000 0.648
8 24.00 1500.05 119 169 0.370 10000.000 0.000 0.300 15000.000 0.000 0.648
9 27.00 1500.05 116 139 0.370 10000.000 0.000 0.300 15000.000 0.000 0.648
10 30.00 1500.05 109 139 0.370 10000.000 0.000 0.300 15000.000 0.000 0.648
11 33.00 1500.05 104 148 0.370 10000.000 0.000 0.300 15000.000 0.000 0.648
12 36.00 1500.05 126 147 0.370 10000.000 0.000 0.300 15000.000 0.000 0.648
13 39.00 1500.05 116 136 0.370 10000.000 0.000 0.300 15000.000 0.000 0.648
14 42.00 1500.05 141 160 0.370 10000.000 0.000 0.300 15000.000 0.000 0.648
15 45.00 1500.05 133 149 0.370 10000.000 0.000 0.300 15000.000 0.000 0.648
16 48.00 1500.05 106 149 0.370 10000.000 0.000 0.300 15000.000 0.000 0.648
17 51.00 1500.05 131 172 0.370 10000.000 0.000 0.300 15000.000 0.000 0.648
18 54.00 1500.05 135 176 0.370 10000.000 0.000 0.300 15000.000 0.000 0.648
19 57.00 1500.05 115 171 0.370 10000.000 0.000 0.300 15000.000 0.000 0.648
20 60.00 1500.05 102 163 0.370 10000.000 0.000 0.300 15000.000 0.000 0.648
21 63.00 1500.05 119 169 0.370 10000.000 0.000 0.300 15000.000 0.000 0.648
22 66.00 1500.05 109 161 0.370 10000.000 0.000 0.300 15000.000 0.000 0.648
23 69.00 1500.05 116 140 0.370 10000.000 0.000 0.300 15000.000 0.000 0.648
24 72.00 1500.05 107 135 0.370 10000.000 0.000 0.300 15000.000 0.000 0.648
25 75.00 1500.05 102 134 0.370 10000.000 0.000 0.300 15000.000 0.000 0.648
26 78.00 1500.05 119 151 0.370 10000.000 0.000 0.300 15000.000 0.000 0.648
27 81.00 1500.05 98 142 0.370 10000.000 0.000 0.300 15000.000 0.000 0.648
28 84.00 1500.05 108 151 0.370 10000.000 0.000 0.300 15000.000 0.000 0.648
29 87.00 1500.05 125 120 0.370 10000.000 0.000 0.300 15000.000 0.000 0.648
30 90.00 1500.05 123 148 0.370 10000.000 0.000 0.300 15000.000 0.000 0.648
31 93.00 1500.05 80 158 0.370 10000.000 0.000 0.300 15000.000 0.000 0.648
32 96.00 1500.05 99 139 0.370 10000.000 0.000 0.300 15000.000 0.000 0.648
33 99.00 1500.05 104 130 0.370 10000.000 0.000 0.300 15000.000 0.000 0.648
34 102.00 1500.05 88 129 0.370 10000.000 0.000 0.300 15000.000 0.000 0.648
35 105.00 1500.05 111 146 0.370 10000.000 0.000 0.300 15000.000 0.000 0.648
36 108.00 1500.05 117 147 0.370 10000.000 0.000 0.300 15000.000 0.000 0.648
37 111.00 1500.05 113 147 0.370 10000.000 0.000 0.300 15000.000 0.000 0.648
38 114.00 1500.05 115 149 0.370 10000.000 0.000 0.300 15000.000 0.000 0.648
39 117.00 1500.05 119 167 0.370 10000.000 0.000 0.300 15000.000 0.000 0.648
40 120.00 1500.05 124 160 0.370 10000.000 0.000 0.300 15000.000 0.000 0.648
41 123.00 1500.05 107 161 0.370 10000.000 0.000 0.300 15000.000 0.000 0.648
42 126.00 1500.05 121 137 0.370 10000.000 0.000 0.300 15000.000 0.000 0.648
43 129.00 1500.05 101 149 0.370 10000.000 0.000 0.300 15000.000 0.000 0.648
44 132.00 1500.05 126 176 0.370 10000.000 0.000 0.300 15000.000 0.000 0.648
45 135.00 1500.05 113 146 0.370 10000.000 0.000 0.300 15000.000 0.000 0.648
46 138.00 1500.05 88 155 0.370 10000.000 0.000 0.300 15000.000 0.000 0.648
47 141.00 1500.05 127 154 0.370 10000.000 0.000 0.300 15000.000 0.000 0.648
48 144.00 1500.05 113 141 0.370 10000.000 0.000 0.300 15000.000 0.000 0.648
49 147.00 1500.05 125 126 0.370 10000.000 0.000 0.300 15000.000 0.000 0.648
50 150.00 1500.05 120 146 0.370 10000.000 0.000 0.300 15000.000 0.000 0.648
51 153.00 1500.05 95 142 0.370 10000.000 0.000 0.300 15000.000 0.000 0.648
52 156.00 1500.05 112 155 0.370 10000.000 0.000 0.300 15000.000 0.000 0.648
53 159.00 1500.05 109 144 0.370 10000.000 0.000 0.300 15000.000 0.000 0.648
54 162.00 1500.05 97 171 0.370 10000.000 0.000 0.300 15000.000 0.000 0.648
55 165.00 1500.05 101 151 0.370 10000.000 0.000 0.300 15000.000 0.000 0.648
56 168.00 1500.05 108 144 0.370 10000.000 0.000 0.300 15000.000 0.000 0.648
57 171.00 1500.05 99 163 0.370 10000.000 0.000 0.300 15000.000 0.000 0.648
58 174.00 1500.05 110 162 0.370 10000.000 0.000 0.300 15000.000 0.000 0.648
59 177.00 1500.05 99 159 0.370 10000.000 0.000 0.300 15000.000 0.000 0.648
60 180.00 1500.05 104 130 0.370 10000.000 0.000 0.300 15000.000 0.000 0.648
61 183.00 1500.05 97 147 0.370 10000.000 0.000 0.300 15000.000 0.000 0.648
62 186.00 1500.05 104 155 0.370 10000.000 0.000 0.300 15000.000 0.000 0.648
63 189.00 1500.05 126 144 0.370 10000.000 0.000 0.300 15000.000 0.000 0.648
64 192.00 1500.05 114 122 0.370 10000.000 0.000 0.300 15000.000 0.000 0.648
65 195.00 1500.05 102 120 0.370 10000.000 0.000 0.300 15000.000 0.000 0.648
66 198.00 1500.05 122 140 0.370 10000.000 0.000 0.300 15000.000 0.000 0.648
67 201.00 1500.05 109 147 0.370 10000.000 0.000 0.300 15000.000 0.000 0.648
68 204.00 1500.05 125 123 0.370 10000.000 0.000 0.300 15000.000 0.000 0.648
69 207.00 1500.05 105 128 0.370 10000.000 0.000 0.300 15000.000 0.000 0.648
70 210.00 1500.05 118 117 0.370 10000.000 0.000 0.300 15000.000 0.000 0.648
71 213.00 1500.05 98 157 0.370 10000.000 0.000 0.300 15000.000 0.000 0.648
72 216.00 1500.05 108 147 0.370 10000.000 0.000 0.300 15000.000 0.000 0.648
73 219.00 1500.05 115 122 0.370 10000.000 0.000 0.300 15000.000 0.000 0.648
74 222.00 1500.05 98 128 0.370 10000.000 0.000 0.300 15000.000 0.000 0.648
75 225.00 1500.05 106 129 0.370 10000.000 0.000 0.300 15000.000 0.000 0.648
76 228.00 1500.05 114 139 0.370 10000.000 0.000 0.300 15000.000 0.000 0.648
77 231.00 1500.05 108 134 0.370 10000.000 0.000 0.300 15000.000 0.000 0.648
78 234.00 1500.05 110 166 0.370 10000.000 0.000 0.300 15000.000 0.000 0.648
79 237.00 1500.05 125 165 0.370 10000.000 0.000 0.300 15000.000 0.000 0.648
80 240.00 1500.05 131 182 0.370 10000.000 0.000 0.300 15000.000 0.000 0.648
81 243.00 1500.05 137 160 0.370 10000.000 0.000 0.300 15000.000 0.000 0.648
82 246.00 1500.05 151 226 0.370 10000.000 0.000 0.300 15000.000 0.000 0.648
83 249.00 1500.05 136 209 0.370 10000.000 0.000 0.300 15000.000 0.000 0.648
84 252.00 1500.05 126 214 0.370 10000.000 0.000 0.300 15000.000 0.000 0.648
85 255.00 1500.05 109 180 0.370 10000.000 0.000 0.300 15000.000 0.000 0.648
86 258.00 1500.05 109 188 0.370 10000.000 0.000 0.300 15000.000 0.000 0.648
87 261.00 1500.05 111 172 0.370 10000.000 0.000 0.300 15000.000 0.000 0.648
88 264.00 1500.05 132 176 0.370 10000.000 0.000 0.300 15000.000 0.000 0.648
89 267.00 1500.05 102 131 0.370 10000.000 0.000 0.300 15000.000 0.000 0.648
90 270.00 1500.05 119 125 0.370 10000.000 0.000 0.300 15000.000 0.000 0.648
91 273.00 1500.05 95 136 0.370 10000.000 0.000 0.300 15000.000 0.000 0.648
92 276.00 1500.05 111 149 0.370 10000.000 0.000 0.300 15000.000 0.000 0.648
93 279.00 1500.05 107 169 0.370 10000.000 0.000 0.300 15000.000 0.000 0.648
94 282.00 1500.05 126 160 0.370 10000.000 0.000 0.300 15000.000 0.000 0.648
95 285.00 1500.05 94 129 0.370 10000.000 0.000 0.300 15000.000 0.000 0.648
96 288.00 1500.05 94 147 0.370 10000.000 0.000 0.300 15000.000 0.000 0.648
97 291.00 1500.05 120 128 0.370 10000.000 0.000 0.300 15000.000 0.000 0.648
98 294.00 1500.05 123 147 0.370 10000.000 0.000 0.300 15000.000 0.000 0.648
99 297.00 1500.05 111 146 0.370 10000.000 0.000 0.300 15000.000 0.000 0.648
100 300.00 1500.05 118 142 0.370 10000.000 0.000 0.300 15000.000 0.000 0.648
101 303.00 1500.05 107 135 0.370 10000.000 0.000 0.300 15000.000 0.000 0.648
102 306.00 1500.05 113 141 0.370 10000.000 0.000 0.300 15000.000 0.000 0.648
103 309.00 1500.05 131 160 0.370 10000.000 0.000 0.300 15000.000 0.000 0.648
104 312.00 1500.05 101 147 0.370 10000.000 0.000 0.300 15000.000 0.000 0.648
105 315.00 1500.05 111 145 0.370 10000.000 0.000 0.300 15000.000 0.000 0.648
106 318.00 1500.05 103 152 0.370 10000.000 0.000 0.300 15000.000 0.000 0.648
107 321.00 1500.05 99 155 0.370 10000.000 0.000 0.300 15000.000 0.000 0.648
108 324.00 1500.05 119 159 0.370 10000.000 0.000 0.300 15000.000 0.000 0.648
109 327.00 1500.05 117 144 0.370 10000.000 0.000 0.300 15000.000 0.000 0.648
110 330.00 1500.05 103 150 0.370 10000.000 0.000 0.300 15000.000 0.000 0.648
111 333.00 1500.05 116 166 0.370 10000.000 0.000 0.300 15000.000 0.000 0.648
112 336.00 1500.05 113 156 0.370 10000.000 0.000 0.300 15000.000 0.000 0.648
113 339.00 1500.05 107 145 0.370 10000.000 0.000 0.300 15000.000 0.000 0.648
114 342.00 1500.05 127 158 0.370 10000.000 0.000 0.300 15000.000 0.000 0.648
115 345.00 1500.05 112 149 0.370 10000.000 0.000 0.300 15000.000 0.000 0.648
116 348.00 1500.05 118 132 0.370 10000.000 0.000 0.300 15000.000 0.000 0.648
117 351.00 1500.05 136 154 0.370 10000.000 0.000 0.300 15000.000 0.000 0.648
118 354.00 1500.05 124 139 0.370 10000.000 0.000 0.300 15000.000 0.000 0.648
119 357.00 1500.05 112 129 0.370 10000.000 0.000 0.300 15000.000 0.000 0.648
120 360.00 1500.05 129 166 0.370 10000.000 0.000 0.300 15000.000 0.000 0.648
121 363.00 1500.05 135 169 0.370 10000.000 0.000 0.300 15000.000 0.000 0.648
122 366.00 1500.05 130 160 0.370 10000.000 0.000 0.300 15000.000 0.000 0.648
123 369.00 1500.05 108 162 0.370 10000.000 0.000 0.300 15000.000 0.000 0.648
124 372.00 1500.05 109 185 0.370 10000.000 0.000 0.300 15000.000 0.000 0.648
125 375.00 1500.05 95 137 0.370 10000.000 0.000 0.300 15000.000 0.000 0.648
126 378.00 1500.05 117 152 0.370 10000.000 0.000 0.300 15000.000 0.000 0.648
127 381.00 1500.05 107 158 0.370 10000.000 0.000 0.300 15000.000 0.000 0.648
128 384.00 1500.05 102 165 0.370 10000.000 0.000 0.300 15000.000 0.000 0.648
129 387.00 1500.05 99 156 0.370 10000.000 0.000 0.300 15000.000 0.000 0.648
130 390.00 1500.05 114 129 0.370 10000.000 0.000 0.300 15000.000 0.000 0.648
131 393.00 1500.05 101 132 0.370 10000.000 0.000 0.300 15000.000 0.000 0.648
132 396.00 1500.05 108 172 0.370 10000.000 0.000 0.300 15000.000 0.000 0.648
133 399.00 1500.05 96 130 0.370 10000.000 0.000 0.300 15000.000 0.000 0.648
134 402.00 1500.05 125 143 0.370 10000.000 0.000 0.300 15000.000 0.000 0.648
135 405.00 1500.05 111 145 0.370 10000.000 0.000 0.300 15000.000 0.000 0.648
136 408.00 1500.05 97 161 0.370 10000.000 0.000 0.300 15000.000 0.000 0.648
137 411.00 1500.05 116 143 0.370 10000.000 0.000 0.300 15000.000 0.000 0.648
138 414.00 1500.05 117 148 0.370 10000.000 0.000 0.300 15000.000 0.000 0.648
139 417.00 1500.05 118 156 0.370 10000.000 0.000 0.300 15000.000 0.000 0.648
140 420.00 1500.05 103 121 0.370 10000.000 0.000 0.300 15000.000 0.000 0.648
141 423.00 1500.05 116 144 0.370 10000.000 0.000 0.300 15000.000 0.000 0.648
142 426.00 1500.05 109 133 0.370 10000.000 0.000 0.300 15000.000 0.000 0.648
143 429.00 1500.05 102 141 0.370 10000.000 0.000 0.300 15000.000 0.000 0.648
144 432.00 1500.05 128 155 0.370 10000.000 0.000 0.300 15000.000 0.000 0.648
