# BinNR microsec tot-time (s)  O-Beam AUX Ampl_1(V) f_1(Hz) phase_1(deg) Ampl_2(V) f_2(Hz) phase_2(deg) chi(pos)
0 0.00 1500.01 92 351 0.370 10000.000 0.000 0.300 15000.000 0.000 -1.011
1 3.00 1500.01 180 636 0.370 10000.000 0.000 0.300 15000.000 0.000 -1.011
2 6.00 1500.01 172 691 0.370 10000.000 0.000 0.300 15000.000 0.000 -1.011
3 9.00 1500.01 178 684 0.370 10000.000 0.000 0.300 15000.000 0.000 -1.011
4 12.00 1500.01 180 729 0.370 10000.000 0.000 0.300 15000.000 0.000 -1.011
5 15.00 1500.01 194 678 0.370 10000.000 0.000 0.300 15000.000 0.000 -1.011
6 18.00 1500.01 195 670 0.370 10000.000 0.000 0.300 15000.000 0.000 -1.011
7 21.00 1500.01 181 613 0.370 10000.000 0.000 0.300 15000.000 0.000 -1.011
8 24.00 1500.01 177 629 0.370 10000.000 0.000 0.300 15000.000 0.000 -1.011
9 27.00 1500.01 176 565 0.370 10000.000 0.000 0.300 15000.000 0.000 -1.011
10 30.00 1500.01 165 611 0.370 10000.000 0.000 0.300 15000.000 0.000 -1.011
11 33.00 1500.01 188 596 0.370 10000.000 0.000 0.300 15000.000 0.000 -1.011
12 36.00 1500.01 180 553 0.370 10000.000 0.000 0.300 15000.000 0.000 -1.011
13 39.00 1500.01 160 590 0.370 10000.000 0.000 0.300 15000.000 0.000 -1.011
14 42.00 1500.01 152 603 0.370 10000.000 0.000 0.300 15000.000 0.000 -1.011
15 45.00 1500.01 169 570 0.370 10000.000 0.000 0.300 15000.000 0.000 -1.011
16 48.00 1500.01 131 656 0.370 10000.000 0.000 0.300 15000.000 0.000 -1.011
17 51.00 1500.01 173 683 0.370 10000.000 0.000 0.300 15000.000 0.000 -1.011
18 54.00 1500.01 163 692 0.370 10000.000 0.000 0.300 15000.000 0.000 -1.011
19 57.00 1500.01 158 697 0.370 10000.000 0.000 0.300 15000.000 0.000 -1.011
20 60.00 1500.01 198 646 0.370 10000.000 0.000 0.300 15000.000 0.000 -1.011
21 63.00 1500.01 183 666 0.370 10000.000 0.000 0.300 15000.000 0.000 -1.011
22 66.00 1500.01 197 640 0.370 10000.000 0.000 0.300 15000.000 0.000 -1.011
23 69.00 1500.01 229 608 0.370 10000.000 0.000 0.300 15000.000 0.000 -1.011
24 72.00 1500.01 199 556 0.370 10000.000 0.000 0.300 15000.000 0.000 -1.011
25 75.00 1500.01 220 531 0.370 10000.000 0.000 0.300 15000.000 0.000 -1.011
26 78.00 1500.01 210 482 0.370 10000.000 0.000 0.300 15000.000 0.000 -1.011
27 81.00 1500.01 216 455 0.370 10000.000 0.000 0.300 15000.000 0.000 -1.011
28 84.00 1500.01 201 444 0.370 10000.000 0.000 0.300 15000.000 0.000 -1.011
29 87.00 1500.01 218 446 0.370 10000.000 0.000 0.300 15000.000 0.000 -1.011
30 90.00 1500.01 215 475 0.370 10000.000 0.000 0.300 15000.000 0.000 -1.011
31 93.00 1500.01 197 449 0.370 10000.000 0.000 0.300 15000.000 0.000 -1.011
32 96.00 1500.01 203 525 0.370 10000.000 0.000 0.300 15000.000 0.000 -1.011
33 99.00 1500.01 186 542 0.370 10000.000 0.000 0.300 15000.000 0.000 -1.011
34 102.00 1500.01 168 573 0.370 10000.000 0.000 0.300 15000.000 0.000 -1.011
35 105.00 1500.01 181 554 0.370 10000.000 0.000 0.300 15000.000 0.000 -1.011
36 108.00 1500.01 201 574 0.370 10000.000 0.000 0.300 15000.000 0.000 -1.011
37 111.00 1500.01 164 578 0.370 10000.000 0.000 0.300 15000.000 0.000 -1.011
38 114.00 1500.01 157 653 0.370 10000.000 0.000 0.300 15000.000 0.000 -1.011
39 117.00 1500.01 172 630 0.370 10000.000 0.000 0.300 15000.000 0.000 -1.011
40 120.00 1500.01 163 641 0.370 10000.000 0.000 0.300 15000.000 0.000 -1.011
41 123.00 1500.01 145 600 0.370 10000.000 0.000 0.300 15000.000 0.000 -1.011
42 126.00 1500.01 170 654 0.370 10000.000 0.000 0.300 15000.000 0.000 -1.011
43 129.00 1500.01 161 592 0.370 10000.000 0.000 0.300 15000.000 0.000 -1.011
44 132.00 1500.01 203 658 0.370 10000.000 0.000 0.300 15000.000 0.000 -1.011
45 135.00 1500.01 165 599 0.370 10000.000 0.000 0.300 15000.000 0.000 -1.011
46 138.00 1500.01 176 584 0.370 10000.000 0.000 0.300 15000.000 0.000 -1.011
47 141.00 1500.01 179 564 0.370 10000.000 0.000 0.300 15000.000 0.000 -1.011
48 144.00 1500.01 180 607 0.370 10000.000 0.000 0.300 15000.000 0.000 -1.011
49 147.00 1500.01 161 584 0.370 10000.000 0.000 0.300 15000.000 0.000 -1.011
50 150.00 1500.01 192 553 0.370 10000.000 0.000 0.300 15000.000 0.000 -1.011
51 153.00 1500.01 222 585 0.370 10000.000 0.000 0.300 15000.000 0.000 -1.011
52 156.00 1500.01 189 574 0.370 10000.000 0.000 0.300 15000.000 0.000 -1.011
53 159.00 1500.01 210 605 0.370 10000.000 0.000 0.300 15000.000 0.000 -1.011
54 162.00 1500.01 195 631 0.370 10000.000 0.000 0.300 15000.000 0.000 -1.011
55 165.00 1500.01 202 606 0.370 10000.000 0.000 0.300 15000.000 0.000 -1.011
56 168.00 1500.01 189 661 0.370 10000.000 0.000 0.300 15000.000 0.000 -1.011
57 171.00 1500.01 199 663 0.370 10000.000 0.000 0.300 15000.000 0.000 -1.011
58 174.00 1500.01 180 633 0.370 10000.000 0.000 0.300 15000.000 0.000 -1.011
59 177.00 1500.01 183 673 0.370 10000.000 0.000 0.300 15000.000 0.000 -1.011
60 180.00 1500.01 238 612 0.370 10000.000 0.000 0.300 15000.000 0.000 -1.011
61 183.00 1500.01 197 550 0.370 10000.000 0.000 0.300 15000.000 0.000 -1.011
62 186.00 1500.01 166 622 0.370 10000.000 0.000 0.300 15000.000 0.000 -1.011
63 189.00 1500.01 199 593 0.370 10000.000 0.000 0.300 15000.000 0.000 -1.011
64 192.00 1500.01 165 525 0.370 10000.000 0.000 0.300 15000.000 0.000 -1.011
65 195.00 1500.01 205 510 0.370 10000.000 0.000 0.300 15000.000 0.000 -1.011
66 198.00 1500.01 183 473 0.370 10000.000 0.000 0.300 15000.000 0.000 -1.011
67 201.00 1500.01 179 469 0.370 10000.000 0.000 0.300 15000.000 0.000 -1.011
68 204.00 1500.01 192 454 0.370 10000.000 0.000 0.300 15000.000 0.000 -1.011
69 207.00 1500.01 202 445 0.370 10000.000 0.000 0.300 15000.000 0.000 -1.011
70 210.00 1500.01 201 494 0.370 10000.000 0.000 0.300 15000.000 0.000 -1.011
71 213.00 1500.01 177 446 0.370 10000.000 0.000 0.300 15000.000 0.000 -1.011
72 216.00 1500.01 191 510 0.370 10000.000 0.000 0.300 15000.000 0.000 -1.011
73 219.00 1500.01 173 494 0.370 10000.000 0.000 0.300 15000.000 0.000 -1.011
74 222.00 1500.01 192 526 0.370 10000.000 0.000 0.300 15000.000 0.000 -1.011
75 225.00 1500.01 199 513 0.370 10000.000 0.000 0.300 15000.000 0.000 -1.011
76 228.00 1500.01 153 582 0.370 10000.000 0.000 0.300 15000.000 0.000 -1.011
77 231.00 1500.01 170 641 0.370 10000.000 0.000 0.300 15000.000 0.000 -1.011
78 234.00 1500.01 158 601 0.370 10000.000 0.000 0.300 15000.000 0.000 -1.011
79 237.00 1500.01 143 678 0.370 10000.000 0.000 0.300 15000.000 0.000 -1.011
80 240.00 1500.01 151 724 0.370 10000.000 0.000 0.300 15000.000 0.000 -1.011
81 243.00 1500.01 166 726 0.370 10000.000 0.000 0.300 15000.000 0.000 -1.011
82 246.00 1500.01 159 759 0.370 10000.000 0.000 0.300 15000.000 0.000 -1.011
83 249.00 1500.01 145 806 0.370 10000.000 0.000 0.300 15000.000 0.000 -1.011
84 252.00 1500.01 160 787 0.370 10000.000 0.000 0.300 15000.000 0.000 -1.011
85 255.00 1500.01 166 715 0.370 10000.000 0.000 0.300 15000.000 0.000 -1.011
86 258.00 1500.01 188 709 0.370 10000.000 0.000 0.300 15000.000 0.000 -1.011
87 261.00 1500.01 190 661 0.370 10000.000 0.000 0.300 15000.000 0.000 -1.011
88 264.00 1500.01 173 651 0.370 10000.000 0.000 0.300 15000.000 0.000 -1.011
89 267.00 1500.01 230 582 0.370 10000.000 0.000 0.300 15000.000 0.000 -1.011
90 270.00 1500.01 198 569 0.370 10000.000 0.000 0.300 15000.000 0.000 -1.011
91 273.00 1500.01 197 528 0.370 10000.000 0.000 0.300 15000.000 0.000 -1.011
92 276.00 1500.01 213 488 0.370 10000.000 0.000 0.300 15000.000 0.000 -1.011
93 279.00 1500.01 198 478 0.370 10000.000 0.000 0.300 15000.000 0.000 -1.011
94 282.00 1500.01 209 437 0.370 10000.000 0.000 0.300 15000.000 0.000 -1.011
95 285.00 1500.01 206 440 0.370 10000.000 0.000 0.300 15000.000 0.000 -1.011
96 288.00 1500.01 211 489 0.370 10000.000 0.000 0.300 15000.000 0.000 -1.011
97 291.00 1500.01 212 486 0.370 10000.000 0.000 0.300 15000.000 0.000 -1.011
98 294.00 1500.01 185 485 0.370 10000.000 0.000 0.300 15000.000 0.000 -1.011
99 297.00 1500.01 171 494 0.370 10000.000 0.000 0.300 15000.000 0.000 -1.011
100 300.00 1500.01 184 464 0.370 10000.000 0.000 0.300 15000.000 0.000 -1.011
101 303.00 1500.01 169 503 0.370 10000.000 0.000 0.300 15000.000 0.000 -1.011
102 306.00 1500.01 183 600 0.370 10000.000 0.000 0.300 15000.000 0.000 -1.011
103 309.00 1500.01 180 581 0.370 10000.000 0.000 0.300 15000.000 0.000 -1.011
104 312.00 1500.01 190 614 0.370 10000.000 0.000 0.300 15000.000 0.000 -1.011
105 315.00 1500.01 193 618 0.370 10000.000 0.000 0.300 15000.000 0.000 -1.011
106 318.00 1500.01 194 673 0.370 10000.000 0.000 0.300 15000.000 0.000 -1.011
107 321.00 1500.01 199 635 0.370 10000.000 0.000 0.300 15000.000 0.000 -1.011
108 324.00 1500.01 182 693 0.370 10000.000 0.000 0.300 15000.000 0.000 -1.011
109 327.00 1500.01 203 628 0.370 10000.000 0.000 0.300 15000.000 0.000 -1.011
110 330.00 1500.01 153 643 0.370 10000.000 0.000 0.300 15000.000 0.000 -1.011
111 333.00 1500.01 164 616 0.370 10000.000 0.000 0.300 15000.000 0.000 -1.011
112 336.00 1500.01 171 631 0.370 10000.000 0.000 0.300 15000.000 0.000 -1.011
113 339.00 1500.01 169 625 0.370 10000.000 0.000 0.300 15000.000 0.000 -1.011
114 342.00 1500.01 171 600 0.370 10000.000 0.000 0.300 15000.000 0.000 -1.011
115 345.00 1500.01 151 552 0.370 10000.000 0.000 0.300 15000.000 0.000 -1.011
116 348.00 1500.01 175 669 0.370 10000.000 0.000 0.300 15000.000 0.000 -1.011
117 351.00 1500.01 180 563 0.370 10000.000 0.000 0.300 15000.000 0.000 -1.011
118 354.00 1500.01 160 580 0.370 10000.000 0.000 0.300 15000.000 0.000 -1.011
119 357.00 1500.01 161 638 0.370 10000.000 0.000 0.300 15000.000 0.000 -1.011
120 360.00 1500.01 150 592 0.370 10000.000 0.000 0.300 15000.000 0.000 -1.011
121 363.00 1500.01 165 628 0.370 10000.000 0.000 0.300 15000.000 0.000 -1.011
122 366.00 1500.01 146 624 0.370 10000.000 0.000 0.300 15000.000 0.000 -1.011
123 369.00 1500.01 168 686 0.370 10000.000 0.000 0.300 15000.000 0.000 -1.011
124 372.00 1500.01 171 630 0.370 10000.000 0.000 0.300 15000.000 0.000 -1.011
125 375.00 1500.01 178 715 0.370 10000.000 0.000 0.300 15000.000 0.000 -1.011
126 378.00 1500.01 178 650 0.370 10000.000 0.000 0.300 15000.000 0.000 -1.011
127 381.00 1500.01 168 616 0.370 10000.000 0.000 0.300 15000.000 0.000 -1.011
128 384.00 1500.01 204 672 0.370 10000.000 0.000 0.300 15000.000 0.000 -1.011
129 387.00 1500.01 168 589 0.370 10000.000 0.000 0.300 15000.000 0.000 -1.011
130 390.00 1500.01 194 562 0.370 10000.000 0.000 0.300 15000.000 0.000 -1.011
131 393.00 1500.01 201 533 0.370 10000.000 0.000 0.300 15000.000 0.000 -1.011
132 396.00 1500.01 175 487 0.370 10000.000 0.000 0.300 15000.000 0.000 -1.011
133 399.00 1500.01 209 502 0.370 10000.000 0.000 0.300 15000.000 0.000 -1.011
134 402.00 1500.01 193 481 0.370 10000.000 0.000 0.300 15000.000 0.000 -1.011
135 405.00 1500.01 200 476 0.370 10000.000 0.000 0.300 15000.000 0.000 -1.011
136 408.00 1500.01 185 406 0.370 10000.000 0.000 0.300 15000.000 0.000 -1.011
137 411.00 1500.01 201 445 0.370 10000.000 0.000 0.300 15000.000 0.000 -1.011
138 414.00 1500.01 196 472 0.370 10000.000 0.000 0.300 15000.000 0.000 -1.011
139 417.00 1500.01 194 458 0.370 10000.000 0.000 0.300 15000.000 0.000 -1.011
140 420.00 1500.01 195 501 0.370 10000.000 0.000 0.300 15000.000 0.000 -1.011
141 423.00 1500.01 205 509 0.370 10000.000 0.000 0.300 15000.000 0.000 -1.011
142 426.00 1500.01 193 549 0.370 10000.000 0.000 0.300 15000.000 0.000 -1.011
143 429.00 1500.01 201 585 0.370 10000.000 0.000 0.300 15000.000 0.000 -1.011
144 432.00 1500.01 194 654 0.370 10000.000 0.000 0.300 15000.000 0.000 -1.011
