# BinNR microsec tot-time (s)  O-Beam AUX Ampl_1(V) f_1(Hz) phase_1(deg) Ampl_2(V) f_2(Hz) phase_2(deg) chi(pos)
0 0.00 1500.00 64 75 0.370 10000.000 0.000 0.300 15000.000 0.000 -1.494
1 3.00 1500.00 141 145 0.370 10000.000 0.000 0.300 15000.000 0.000 -1.494
2 6.00 1500.00 144 139 0.370 10000.000 0.000 0.300 15000.000 0.000 -1.494
3 9.00 1500.00 140 158 0.370 10000.000 0.000 0.300 15000.000 0.000 -1.494
4 12.00 1500.00 167 143 0.370 10000.000 0.000 0.300 15000.000 0.000 -1.494
5 15.00 1500.00 128 133 0.370 10000.000 0.000 0.300 15000.000 0.000 -1.494
6 18.00 1500.00 152 162 0.370 10000.000 0.000 0.300 15000.000 0.000 -1.494
7 21.00 1500.00 147 172 0.370 10000.000 0.000 0.300 15000.000 0.000 -1.494
8 24.00 1500.00 152 158 0.370 10000.000 0.000 0.300 15000.000 0.000 -1.494
9 27.00 1500.00 141 147 0.370 10000.000 0.000 0.300 15000.000 0.000 -1.494
10 30.00 1500.00 138 158 0.370 10000.000 0.000 0.300 15000.000 0.000 -1.494
11 33.00 1500.00 150 149 0.370 10000.000 0.000 0.300 15000.000 0.000 -1.494
12 36.00 1500.00 172 173 0.370 10000.000 0.000 0.300 15000.000 0.000 -1.494
13 39.00 1500.00 179 142 0.370 10000.000 0.000 0.300 15000.000 0.000 -1.494
14 42.00 1500.00 168 161 0.370 10000.000 0.000 0.300 15000.000 0.000 -1.494
15 45.00 1500.00 160 164 0.370 10000.000 0.000 0.300 15000.000 0.000 -1.494
16 48.00 1500.00 161 146 0.370 10000.000 0.000 0.300 15000.000 0.000 -1.494
17 51.00 1500.00 179 130 0.370 10000.000 0.000 0.300 15000.000 0.000 -1.494
18 54.00 1500.00 148 144 0.370 10000.000 0.000 0.300 15000.000 0.000 -1.494
19 57.00 1500.00 166 127 0.370 10000.000 0.000 0.300 15000.000 0.000 -1.494
20 60.00 1500.00 155 145 0.370 10000.000 0.000 0.300 15000.000 0.000 -1.494
21 63.00 1500.00 147 168 0.370 10000.000 0.000 0.300 15000.000 0.000 -1.494
22 66.00 1500.00 145 143 0.370 10000.000 0.000 0.300 15000.000 0.000 -1.494
23 69.00 1500.00 141 156 0.370 10000.000 0.000 0.300 15000.000 0.000 -1.494
24 72.00 1500.00 129 139 0.370 10000.000 0.000 0.300 15000.000 0.000 -1.494
25 75.00 1500.00 119 158 0.370 10000.000 0.000 0.300 15000.000 0.000 -1.494
26 78.00 1500.00 126 183 0.370 10000.000 0.000 0.300 15000.000 0.000 -1.494
27 81.00 1500.00 124 182 0.370 10000.000 0.000 0.300 15000.000 0.000 -1.494
28 84.00 1500.00 135 201 0.370 10000.000 0.000 0.300 15000.000 0.000 -1.494
29 87.00 1500.00 160 216 0.370 10000.000 0.000 0.300 15000.000 0.000 -1.494
30 90.00 1500.00 100 191 0.370 10000.000 0.000 0.300 15000.000 0.000 -1.494
31 93.00 1500.00 114 179 0.370 10000.000 0.000 0.300 15000.000 0.000 -1.494
32 96.00 1500.00 107 191 0.370 10000.000 0.000 0.300 15000.000 0.000 -1.494
33 99.00 1500.00 133 191 0.370 10000.000 0.000 0.300 15000.000 0.000 -1.494
34 102.00 1500.00 164 146 0.370 10000.000 0.000 0.300 15000.000 0.000 -1.494
35 105.00 1500.00 154 168 0.370 10000.000 0.000 0.300 15000.000 0.000 -1.494
36 108.00 1500.00 143 148 0.370 10000.000 0.000 0.300 15000.000 0.000 -1.494
37 111.00 1500.00 146 146 0.370 10000.000 0.000 0.300 15000.000 0.000 -1.494
38 114.00 1500.00 167 159 0.370 10000.000 0.000 0.300 15000.000 0.000 -1.494
39 117.00 1500.00 167 144 0.370 10000.000 0.000 0.300 15000.000 0.000 -1.494
40 120.00 1500.00 157 146 0.370 10000.000 0.000 0.300 15000.000 0.000 -1.494
41 123.00 1500.00 159 169 0.370 10000.000 0.000 0.300 15000.000 0.000 -1.494
42 126.00 1500.00 169 157 0.370 10000.000 0.000 0.300 15000.000 0.000 -1.494
43 129.00 1500.00 152 144 0.370 10000.000 0.000 0.300 15000.000 0.000 -1.494
44 132.00 1500.00 173 151 0.370 10000.000 0.000 0.300 15000.000 0.000 -1.494
45 135.00 1500.00 174 163 0.370 10000.000 0.000 0.300 15000.000 0.000 -1.494
46 138.00 1500.00 148 169 0.370 10000.000 0.000 0.300 15000.000 0.000 -1.494
47 141.00 1500.00 138 184 0.370 10000.000 0.000 0.300 15000.000 0.000 -1.494
48 144.00 1500.00 137 159 0.370 10000.000 0.000 0.300 15000.000 0.000 -1.494
49 147.00 1500.00 168 170 0.370 10000.000 0.000 0.300 15000.000 0.000 -1.494
50 150.00 1500.00 138 156 0.370 10000.000 0.000 0.300 15000.000 0.000 -1.494
51 153.00 1500.00 125 144 0.370 10000.000 0.000 0.300 15000.000 0.000 -1.494
52 156.00 1500.00 126 160 0.370 10000.000 0.000 0.300 15000.000 0.000 -1.494
53 159.00 1500.00 152 147 0.370 10000.000 0.000 0.300 15000.000 0.000 -1.494
54 162.00 1500.00 131 137 0.370 10000.000 0.000 0.300 15000.000 0.000 -1.494
55 165.00 1500.00 130 164 0.370 10000.000 0.000 0.300 15000.000 0.000 -1.494
56 168.00 1500.00 134 148 0.370 10000.000 0.000 0.300 15000.000 0.000 -1.494
57 171.00 1500.00 146 161 0.370 10000.000 0.000 0.300 15000.000 0.000 -1.494
58 174.00 1500.00 155 145 0.370 10000.000 0.000 0.300 15000.000 0.000 -1.494
59 177.00 1500.00 153 153 0.370 10000.000 0.000 0.300 15000.000 0.000 -1.494
60 180.00 1500.00 129 132 0.370 10000.000 0.000 0.300 15000.000 0.000 -1.494
61 183.00 1500.00 119 149 0.370 10000.000 0.000 0.300 15000.000 0.000 -1.494
62 186.00 1500.00 151 145 0.370 10000.000 0.000 0.300 15000.000 0.000 -1.494
63 189.00 1500.00 139 159 0.370 10000.000 0.000 0.300 15000.000 0.000 -1.494
64 192.00 1500.00 161 146 0.370 10000.000 0.000 0.300 15000.000 0.000 -1.494
65 195.00 1500.00 151 176 0.370 10000.000 0.000 0.300 15000.000 0.000 -1.494
66 198.00 1500.00 125 169 0.370 10000.000 0.000 0.300 15000.000 0.000 -1.494
67 201.00 1500.00 154 176 0.370 10000.000 0.000 0.300 15000.000 0.000 -1.494
68 204.00 1500.00 135 200 0.370 10000.000 0.000 0.300 15000.000 0.000 -1.494
69 207.00 1500.00 139 193 0.370 10000.000 0.000 0.300 15000.000 0.000 -1.494
70 210.00 1500.00 155 204 0.370 10000.000 0.000 0.300 15000.000 0.000 -1.494
71 213.00 1500.00 140 164 0.370 10000.000 0.000 0.300 15000.000 0.000 -1.494
72 216.00 1500.00 150 157 0.370 10000.000 0.000 0.300 15000.000 0.000 -1.494
73 219.00 1500.00 135 180 0.370 10000.000 0.000 0.300 15000.000 0.000 -1.494
74 222.00 1500.00 136 196 0.370 10000.000 0.000 0.300 15000.000 0.000 -1.494
75 225.00 1500.00 150 172 0.370 10000.000 0.000 0.300 15000.000 0.000 -1.494
76 228.00 1500.00 129 165 0.370 10000.000 0.000 0.300 15000.000 0.000 -1.494
77 231.00 1500.00 152 146 0.370 10000.000 0.000 0.300 15000.000 0.000 -1.494
78 234.00 1500.00 156 170 0.370 10000.000 0.000 0.300 15000.000 0.000 -1.494
79 237.00 1500.00 149 161 0.370 10000.000 0.000 0.300 15000.000 0.000 -1.494
80 240.00 1500.00 131 161 0.370 10000.000 0.000 0.300 15000.000 0.000 -1.494
81 243.00 1500.00 150 132 0.370 10000.000 0.000 0.300 15000.000 0.000 -1.494
82 246.00 1500.00 151 155 0.370 10000.000 0.000 0.300 15000.000 0.000 -1.494
83 249.00 1500.00 148 140 0.370 10000.000 0.000 0.300 15000.000 0.000 -1.494
84 252.00 1500.00 169 140 0.370 10000.000 0.000 0.300 15000.000 0.000 -1.494
85 255.00 1500.00 149 170 0.370 10000.000 0.000 0.300 15000.000 0.000 -1.494
86 258.00 1500.00 166 182 0.370 10000.000 0.000 0.300 15000.000 0.000 -1.494
87 261.00 1500.00 148 141 0.370 10000.000 0.000 0.300 15000.000 0.000 -1.494
88 264.00 1500.00 141 160 0.370 10000.000 0.000 0.300 15000.000 0.000 -1.494
89 267.00 1500.00 165 136 0.370 10000.000 0.000 0.300 15000.000 0.000 -1.494
90 270.00 1500.00 163 160 0.370 10000.000 0.000 0.300 15000.000 0.000 -1.494
91 273.00 1500.00 139 156 0.370 10000.000 0.000 0.300 15000.000 0.000 -1.494
92 276.00 1500.00 122 195 0.370 10000.000 0.000 0.300 15000.000 0.000 -1.494
93 279.00 1500.00 139 173 0.370 10000.000 0.000 0.300 15000.000 0.000 -1.494
94 282.00 1500.00 142 192 0.370 10000.000 0.000 0.300 15000.000 0.000 -1.494
95 285.00 1500.00 143 193 0.370 10000.000 0.000 0.300 15000.000 0.000 -1.494
96 288.00 1500.00 140 205 0.370 10000.000 0.000 0.300 15000.000 0.000 -1.494
97 291.00 1500.00 133 185 0.370 10000.000 0.000 0.300 15000.000 0.000 -1.494
98 294.00 1500.00 138 194 0.370 10000.000 0.000 0.300 15000.000 0.000 -1.494
99 297.00 1500.00 126 181 0.370 10000.000 0.000 0.300 15000.000 0.000 -1.494
100 300.00 1500.00 137 155 0.370 10000.000 0.000 0.300 15000.000 0.000 -1.494
101 303.00 1500.00 147 150 0.370 10000.000 0.000 0.300 15000.000 0.000 -1.494
102 306.00 1500.00 132 169 0.370 10000.000 0.000 0.300 15000.000 0.000 -1.494
103 309.00 1500.00 126 156 0.370 10000.000 0.000 0.300 15000.000 0.000 -1.494
104 312.00 1500.00 160 149 0.370 10000.000 0.000 0.300 15000.000 0.000 -1.494
105 315.00 1500.00 158 143 0.370 10000.000 0.000 0.300 15000.000 0.000 -1.494
106 318.00 1500.00 140 177 0.370 10000.000 0.000 0.300 15000.000 0.000 -1.494
107 321.00 1500.00 116 166 0.370 10000.000 0.000 0.300 15000.000 0.000 -1.494
108 324.00 1500.00 138 155 0.370 10000.000 0.000 0.300 15000.000 0.000 -1.494
109 327.00 1500.00 145 158 0.370 10000.000 0.000 0.300 15000.000 0.000 -1.494
110 330.00 1500.00 152 155 0.370 10000.000 0.000 0.300 15000.000 0.000 -1.494
111 333.00 1500.00 148 159 0.370 10000.000 0.000 0.300 15000.000 0.000 -1.494
112 336.00 1500.00 142 162 0.370 10000.000 0.000 0.300 15000.000 0.000 -1.494
113 339.00 1500.00 138 178 0.370 10000.000 0.000 0.300 15000.000 0.000 -1.494
114 342.00 1500.00 149 160 0.370 10000.000 0.000 0.300 15000.000 0.000 -1.494
115 345.00 1500.00 156 137 0.370 10000.000 0.000 0.300 15000.000 0.000 -1.494
116 348.00 1500.00 155 167 0.370 10000.000 0.000 0.300 15000.000 0.000 -1.494
117 351.00 1500.00 163 151 0.370 10000.000 0.000 0.300 15000.000 0.000 -1.494
118 354.00 1500.00 142 137 0.370 10000.000 0.000 0.300 15000.000 0.000 -1.494
119 357.00 1500.00 171 160 0.370 10000.000 0.000 0.300 15000.000 0.000 -1.494
120 360.00 1500.00 172 131 0.370 10000.000 0.000 0.300 15000.000 0.000 -1.494
121 363.00 1500.00 168 186 0.370 10000.000 0.000 0.300 15000.000 0.000 -1.494
122 366.00 1500.00 157 155 0.370 10000.000 0.000 0.300 15000.000 0.000 -1.494
123 369.00 1500.00 143 168 0.370 10000.000 0.000 0.300 15000.000 0.000 -1.494
124 372.00 1500.00 162 159 0.370 10000.000 0.000 0.300 15000.000 0.000 -1.494
125 375.00 1500.00 128 152 0.370 10000.000 0.000 0.300 15000.000 0.000 -1.494
126 378.00 1500.00 151 159 0.370 10000.000 0.000 0.300 15000.000 0.000 -1.494
127 381.00 1500.00 155 165 0.370 10000.000 0.000 0.300 15000.000 0.000 -1.494
128 384.00 1500.00 115 162 0.370 10000.000 0.000 0.300 15000.000 0.000 -1.494
129 387.00 1500.00 119 179 0.370 10000.000 0.000 0.300 15000.000 0.000 -1.494
130 390.00 1500.00 148 143 0.370 10000.000 0.000 0.300 15000.000 0.000 -1.494
131 393.00 1500.00 137 182 0.370 10000.000 0.000 0.300 15000.000 0.000 -1.494
132 396.00 1500.00 145 193 0.370 10000.000 0.000 0.300 15000.000 0.000 -1.494
133 399.00 1500.00 131 185 0.370 10000.000 0.000 0.300 15000.000 0.000 -1.494
134 402.00 1500.00 143 184 0.370 10000.000 0.000 0.300 15000.000 0.000 -1.494
135 405.00 1500.00 148 210 0.370 10000.000 0.000 0.300 15000.000 0.000 -1.494
136 408.00 1500.00 151 191 0.370 10000.000 0.000 0.300 15000.000 0.000 -1.494
137 411.00 1500.00 142 191 0.370 10000.000 0.000 0.300 15000.000 0.000 -1.494
138 414.00 1500.00 132 194 0.370 10000.000 0.000 0.300 15000.000 0.000 -1.494
139 417.00 1500.00 149 180 0.370 10000.000 0.000 0.300 15000.000 0.000 -1.494
140 420.00 1500.00 167 185 0.370 10000.000 0.000 0.300 15000.000 0.000 -1.494
141 423.00 1500.00 158 151 0.370 10000.000 0.000 0.300 15000.000 0.000 -1.494
142 426.00 1500.00 139 166 0.370 10000.000 0.000 0.300 15000.000 0.000 -1.494
143 429.00 1500.00 154 142 0.370 10000.000 0.000 0.300 15000.000 0.000 -1.494
144 432.00 1500.00 137 161 0.370 10000.000 0.000 0.300 15000.000 0.000 -1.494
