# BinNR microsec tot-time (s)  O-Beam AUX Ampl_1(V) f_1(Hz) phase_1(deg) Ampl_2(V) f_2(Hz) phase_2(deg) chi(pos)
0 0.00 1500.00 73 289 0.370 10000.000 0.000 0.300 15000.000 0.000 0.989
1 3.00 1500.00 158 625 0.370 10000.000 0.000 0.300 15000.000 0.000 0.989
2 6.00 1500.00 171 578 0.370 10000.000 0.000 0.300 15000.000 0.000 0.989
3 9.00 1500.00 169 579 0.370 10000.000 0.000 0.300 15000.000 0.000 0.989
4 12.00 1500.00 161 627 0.370 10000.000 0.000 0.300 15000.000 0.000 0.989
5 15.00 1500.00 158 579 0.370 10000.000 0.000 0.300 15000.000 0.000 0.989
6 18.00 1500.00 151 571 0.370 10000.000 0.000 0.300 15000.000 0.000 0.989
7 21.00 1500.00 160 528 0.370 10000.000 0.000 0.300 15000.000 0.000 0.989
8 24.00 1500.00 161 509 0.370 10000.000 0.000 0.300 15000.000 0.000 0.989
9 27.00 1500.00 150 490 0.370 10000.000 0.000 0.300 15000.000 0.000 0.989
10 30.00 1500.00 149 503 0.370 10000.000 0.000 0.300 15000.000 0.000 0.989
11 33.00 1500.00 120 494 0.370 10000.000 0.000 0.300 15000.000 0.000 0.989
12 36.00 1500.00 146 481 0.370 10000.000 0.000 0.300 15000.000 0.000 0.989
13 39.00 1500.00 119 465 0.370 10000.000 0.000 0.300 15000.000 0.000 0.989
14 42.00 1500.00 137 462 0.370 10000.000 0.000 0.300 15000.000 0.000 0.989
15 45.00 1500.00 140 492 0.370 10000.000 0.000 0.300 15000.000 0.000 0.989
16 48.00 1500.00 139 536 0.370 10000.000 0.000 0.300 15000.000 0.000 0.989
17 51.00 1500.00 131 539 0.370 10000.000 0.000 0.300 15000.000 0.000 0.989
18 54.00 1500.00 132 587 0.370 10000.000 0.000 0.300 15000.000 0.000 0.989
19 57.00 1500.00 141 557 0.370 10000.000 0.000 0.300 15000.000 0.000 0.989
20 60.00 1500.00 133 595 0.370 10000.000 0.000 0.300 15000.000 0.000 0.989
21 63.00 1500.00 136 550 0.370 10000.000 0.000 0.300 15000.000 0.000 0.989
22 66.00 1500.00 145 491 0.370 10000.000 0.000 0.300 15000.000 0.000 0.989
23 69.00 1500.00 160 454 0.370 10000.000 0.000 0.300 15000.000 0.000 0.989
24 72.00 1500.00 181 439 0.370 10000.000 0.000 0.300 15000.000 0.000 0.989
25 75.00 1500.00 181 387 0.370 10000.000 0.000 0.300 15000.000 0.000 0.989
26 78.00 1500.00 201 374 0.370 10000.000 0.000 0.300 15000.000 0.000 0.989
27 81.00 1500.00 196 352 0.370 10000.000 0.000 0.300 15000.000 0.000 0.989
28 84.00 1500.00 186 372 0.370 10000.000 0.000 0.300 15000.000 0.000 0.989
29 87.00 1500.00 204 348 0.370 10000.000 0.000 0.300 15000.000 0.000 0.989
30 90.00 1500.00 166 344 0.370 10000.000 0.000 0.300 15000.000 0.000 0.989
31 93.00 1500.00 161 368 0.370 10000.000 0.000 0.300 15000.000 0.000 0.989
32 96.00 1500.00 191 399 0.370 10000.000 0.000 0.300 15000.000 0.000 0.989
33 99.00 1500.00 172 401 0.370 10000.000 0.000 0.300 15000.000 0.000 0.989
34 102.00 1500.00 145 451 0.370 10000.000 0.000 0.300 15000.000 0.000 0.989
35 105.00 1500.00 147 423 0.370 10000.000 0.000 0.300 15000.000 0.000 0.989
36 108.00 1500.00 142 493 0.370 10000.000 0.000 0.300 15000.000 0.000 0.989
37 111.00 1500.00 128 507 0.370 10000.000 0.000 0.300 15000.000 0.000 0.989
38 114.00 1500.00 147 512 0.370 10000.000 0.000 0.300 15000.000 0.000 0.989
39 117.00 1500.00 133 556 0.370 10000.000 0.000 0.300 15000.000 0.000 0.989
40 120.00 1500.00 146 552 0.370 10000.000 0.000 0.300 15000.000 0.000 0.989
41 123.00 1500.00 116 506 0.370 10000.000 0.000 0.300 15000.000 0.000 0.989
42 126.00 1500.00 135 543 0.370 10000.000 0.000 0.300 15000.000 0.000 0.989
43 129.00 1500.00 145 523 0.370 10000.000 0.000 0.300 15000.000 0.000 0.989
44 132.00 1500.00 155 533 0.370 10000.000 0.000 0.300 15000.000 0.000 0.989
45 135.00 1500.00 140 472 0.370 10000.000 0.000 0.300 15000.000 0.000 0.989
46 138.00 1500.00 168 462 0.370 10000.000 0.000 0.300 15000.000 0.000 0.989
47 141.00 1500.00 146 505 0.370 10000.000 0.000 0.300 15000.000 0.000 0.989
48 144.00 1500.00 135 478 0.370 10000.000 0.000 0.300 15000.000 0.000 0.989
49 147.00 1500.00 139 479 0.370 10000.000 0.000 0.300 15000.000 0.000 0.989
50 150.00 1500.00 133 510 0.370 10000.000 0.000 0.300 15000.000 0.000 0.989
51 153.00 1500.00 174 509 0.370 10000.000 0.000 0.300 15000.000 0.000 0.989
52 156.00 1500.00 158 501 0.370 10000.000 0.000 0.300 15000.000 0.000 0.989
53 159.00 1500.00 172 502 0.370 10000.000 0.000 0.300 15000.000 0.000 0.989
54 162.00 1500.00 172 501 0.370 10000.000 0.000 0.300 15000.000 0.000 0.989
55 165.00 1500.00 161 556 0.370 10000.000 0.000 0.300 15000.000 0.000 0.989
56 168.00 1500.00 159 521 0.370 10000.000 0.000 0.300 15000.000 0.000 0.989
57 171.00 1500.00 169 501 0.370 10000.000 0.000 0.300 15000.000 0.000 0.989
58 174.00 1500.00 144 595 0.370 10000.000 0.000 0.300 15000.000 0.000 0.989
59 177.00 1500.00 153 516 0.370 10000.000 0.000 0.300 15000.000 0.000 0.989
60 180.00 1500.00 142 502 0.370 10000.000 0.000 0.300 15000.000 0.000 0.989
61 183.00 1500.00 154 542 0.370 10000.000 0.000 0.300 15000.000 0.000 0.989
62 186.00 1500.00 150 533 0.370 10000.000 0.000 0.300 15000.000 0.000 0.989
63 189.00 1500.00 158 481 0.370 10000.000 0.000 0.300 15000.000 0.000 0.989
64 192.00 1500.00 149 428 0.370 10000.000 0.000 0.300 15000.000 0.000 0.989
65 195.00 1500.00 165 392 0.370 10000.000 0.000 0.300 15000.000 0.000 0.989
66 198.00 1500.00 169 401 0.370 10000.000 0.000 0.300 15000.000 0.000 0.989
67 201.00 1500.00 152 400 0.370 10000.000 0.000 0.300 15000.000 0.000 0.989
68 204.00 1500.00 154 356 0.370 10000.000 0.000 0.300 15000.000 0.000 0.989
69 207.00 1500.00 146 365 0.370 10000.000 0.000 0.300 15000.000 0.000 0.989
70 210.00 1500.00 175 316 0.370 10000.000 0.000 0.300 15000.000 0.000 0.989
71 213.00 1500.00 146 359 0.370 10000.000 0.000 0.300 15000.000 0.000 0.989
72 216.00 1500.00 161 367 0.370 10000.000 0.000 0.300 15000.000 0.000 0.989
73 219.00 1500.00 153 396 0.370 10000.000 0.000 0.300 15000.000 0.000 0.989
74 222.00 1500.00 144 435 0.370 10000.000 0.000 0.300 15000.000 0.000 0.989
75 225.00 1500.00 141 435 0.370 10000.000 0.000 0.300 15000.000 0.000 0.989
76 228.00 1500.00 178 491 0.370 10000.000 0.000 0.300 15000.000 0.000 0.989
77 231.00 1500.00 128 557 0.370 10000.000 0.000 0.300 15000.000 0.000 0.989
78 234.00 1500.00 129 571 0.370 10000.000 0.000 0.300 15000.000 0.000 0.989
79 237.00 1500.00 130 566 0.370 10000.000 0.000 0.300 15000.000 0.000 0.989
80 240.00 1500.00 141 614 0.370 10000.000 0.000 0.300 15000.000 0.000 0.989
81 243.00 1500.00 132 627 0.370 10000.000 0.000 0.300 15000.000 0.000 0.989
82 246.00 1500.00 135 654 0.370 10000.000 0.000 0.300 15000.000 0.000 0.989
83 249.00 1500.00 105 674 0.370 10000.000 0.000 0.300 15000.000 0.000 0.989
84 252.00 1500.00 114 636 0.370 10000.000 0.000 0.300 15000.000 0.000 0.989
85 255.00 1500.00 144 544 0.370 10000.000 0.000 0.300 15000.000 0.000 0.989
86 258.00 1500.00 129 606 0.370 10000.000 0.000 0.300 15000.000 0.000 0.989
87 261.00 1500.00 133 583 0.370 10000.000 0.000 0.300 15000.000 0.000 0.989
88 264.00 1500.00 149 548 0.370 10000.000 0.000 0.300 15000.000 0.000 0.989
89 267.00 1500.00 150 460 0.370 10000.000 0.000 0.300 15000.000 0.000 0.989
90 270.00 1500.00 140 434 0.370 10000.000 0.000 0.300 15000.000 0.000 0.989
91 273.00 1500.00 171 409 0.370 10000.000 0.000 0.300 15000.000 0.000 0.989
92 276.00 1500.00 176 419 0.370 10000.000 0.000 0.300 15000.000 0.000 0.989
93 279.00 1500.00 167 367 0.370 10000.000 0.000 0.300 15000.000 0.000 0.989
94 282.00 1500.00 168 357 0.370 10000.000 0.000 0.300 15000.000 0.000 0.989
95 285.00 1500.00 184 334 0.370 10000.000 0.000 0.300 15000.000 0.000 0.989
96 288.00 1500.00 180 358 0.370 10000.000 0.000 0.300 15000.000 0.000 0.989
97 291.00 1500.00 145 349 0.370 10000.000 0.000 0.300 15000.000 0.000 0.989
98 294.00 1500.00 151 364 0.370 10000.000 0.000 0.300 15000.000 0.000 0.989
99 297.00 1500.00 162 380 0.370 10000.000 0.000 0.300 15000.000 0.000 0.989
100 300.00 1500.00 144 424 0.370 10000.000 0.000 0.300 15000.000 0.000 0.989
101 303.00 1500.00 144 454 0.370 10000.000 0.000 0.300 15000.000 0.000 0.989
102 306.00 1500.00 136 487 0.370 10000.000 0.000 0.300 15000.000 0.000 0.989
103 309.00 1500.00 154 538 0.370 10000.000 0.000 0.300 15000.000 0.000 0.989
104 312.00 1500.00 160 500 0.370 10000.000 0.000 0.300 15000.000 0.000 0.989
105 315.00 1500.00 168 493 0.370 10000.000 0.000 0.300 15000.000 0.000 0.989
106 318.00 1500.00 145 456 0.370 10000.000 0.000 0.300 15000.000 0.000 0.989
107 321.00 1500.00 193 507 0.370 10000.000 0.000 0.300 15000.000 0.000 0.989
108 324.00 1500.00 163 537 0.370 10000.000 0.000 0.300 15000.000 0.000 0.989
109 327.00 1500.00 182 529 0.370 10000.000 0.000 0.300 15000.000 0.000 0.989
110 330.00 1500.00 173 542 0.370 10000.000 0.000 0.300 15000.000 0.000 0.989
111 333.00 1500.00 174 484 0.370 10000.000 0.000 0.300 15000.000 0.000 0.989
112 336.00 1500.00 165 559 0.370 10000.000 0.000 0.300 15000.000 0.000 0.989
113 339.00 1500.00 146 481 0.370 10000.000 0.000 0.300 15000.000 0.000 0.989
114 342.00 1500.00 151 526 0.370 10000.000 0.000 0.300 15000.000 0.000 0.989
115 345.00 1500.00 123 468 0.370 10000.000 0.000 0.300 15000.000 0.000 0.989
116 348.00 1500.00 155 483 0.370 10000.000 0.000 0.300 15000.000 0.000 0.989
117 351.00 1500.00 131 462 0.370 10000.000 0.000 0.300 15000.000 0.000 0.989
118 354.00 1500.00 152 479 0.370 10000.000 0.000 0.300 15000.000 0.000 0.989
119 357.00 1500.00 139 467 0.370 10000.000 0.000 0.300 15000.000 0.000 0.989
120 360.00 1500.00 119 516 0.370 10000.000 0.000 0.300 15000.000 0.000 0.989
121 363.00 1500.00 114 497 0.370 10000.000 0.000 0.300 15000.000 0.000 0.989
122 366.00 1500.00 126 521 0.370 10000.000 0.000 0.300 15000.000 0.000 0.989
123 369.00 1500.00 155 527 0.370 10000.000 0.000 0.300 15000.000 0.000 0.989
124 372.00 1500.00 128 565 0.370 10000.000 0.000 0.300 15000.000 0.000 0.989
125 375.00 1500.00 131 527 0.370 10000.000 0.000 0.300 15000.000 0.000 0.989
126 378.00 1500.00 141 517 0.370 10000.000 0.000 0.300 15000.000 0.000 0.989
127 381.00 1500.00 162 540 0.370 10000.000 0.000 0.300 15000.000 0.000 0.989
128 384.00 1500.00 160 510 0.370 10000.000 0.000 0.300 15000.000 0.000 0.989
129 387.00 1500.00 147 478 0.370 10000.000 0.000 0.300 15000.000 0.000 0.989
130 390.00 1500.00 145 430 0.370 10000.000 0.000 0.300 15000.000 0.000 0.989
131 393.00 1500.00 149 417 0.370 10000.000 0.000 0.300 15000.000 0.000 0.989
132 396.00 1500.00 162 405 0.370 10000.000 0.000 0.300 15000.000 0.000 0.989
133 399.00 1500.00 131 390 0.370 10000.000 0.000 0.300 15000.000 0.000 0.989
134 402.00 1500.00 159 391 0.370 10000.000 0.000 0.300 15000.000 0.000 0.989
135 405.00 1500.00 168 348 0.370 10000.000 0.000 0.300 15000.000 0.000 0.989
136 408.00 1500.00 171 359 0.370 10000.000 0.000 0.300 15000.000 0.000 0.989
137 411.00 1500.00 136 361 0.370 10000.000 0.000 0.300 15000.000 0.000 0.989
138 414.00 1500.00 159 392 0.370 10000.000 0.000 0.300 15000.000 0.000 0.989
139 417.00 1500.00 142 365 0.370 10000.000 0.000 0.300 15000.000 0.000 0.989
140 420.00 1500.00 152 399 0.370 10000.000 0.000 0.300 15000.000 0.000 0.989
141 423.00 1500.00 158 422 0.370 10000.000 0.000 0.300 15000.000 0.000 0.989
142 426.00 1500.00 153 447 0.370 10000.000 0.000 0.300 15000.000 0.000 0.989
143 429.00 1500.00 181 506 0.370 10000.000 0.000 0.300 15000.000 0.000 0.989
144 432.00 1500.00 141 500 0.370 10000.000 0.000 0.300 15000.000 0.000 0.989
