# BinNR microsec tot-time (s)  O-Beam AUX Ampl_1(V) f_1(Hz) phase_1(deg) Ampl_2(V) f_2(Hz) phase_2(deg) chi(pos)
0 0.00 1500.01 211 656 0.370 10000.000 0.000 0.300 15000.000 0.000 -0.505
1 3.00 1500.01 398 1207 0.370 10000.000 0.000 0.300 15000.000 0.000 -0.505
2 6.00 1500.01 431 1274 0.370 10000.000 0.000 0.300 15000.000 0.000 -0.505
3 9.00 1500.01 394 1209 0.370 10000.000 0.000 0.300 15000.000 0.000 -0.505
4 12.00 1500.01 394 1226 0.370 10000.000 0.000 0.300 15000.000 0.000 -0.505
5 15.00 1500.01 413 1297 0.370 10000.000 0.000 0.300 15000.000 0.000 -0.505
6 18.00 1500.01 408 1262 0.370 10000.000 0.000 0.300 15000.000 0.000 -0.505
7 21.00 1500.01 403 1182 0.370 10000.000 0.000 0.300 15000.000 0.000 -0.505
8 24.00 1500.01 381 1231 0.370 10000.000 0.000 0.300 15000.000 0.000 -0.505
9 27.00 1500.01 374 1268 0.370 10000.000 0.000 0.300 15000.000 0.000 -0.505
10 30.00 1500.01 415 1246 0.370 10000.000 0.000 0.300 15000.000 0.000 -0.505
11 33.00 1500.01 361 1207 0.370 10000.000 0.000 0.300 15000.000 0.000 -0.505
12 36.00 1500.01 398 1265 0.370 10000.000 0.000 0.300 15000.000 0.000 -0.505
13 39.00 1500.01 401 1328 0.370 10000.000 0.000 0.300 15000.000 0.000 -0.505
14 42.00 1500.01 388 1236 0.370 10000.000 0.000 0.300 15000.000 0.000 -0.505
15 45.00 1500.01 331 1230 0.370 10000.000 0.000 0.300 15000.000 0.000 -0.505
16 48.00 1500.01 387 1232 0.370 10000.000 0.000 0.300 15000.000 0.000 -0.505
17 51.00 1500.01 372 1200 0.370 10000.000 0.000 0.300 15000.000 0.000 -0.505
18 54.00 1500.01 392 1231 0.370 10000.000 0.000 0.300 15000.000 0.000 -0.505
19 57.00 1500.01 357 1188 0.370 10000.000 0.000 0.300 15000.000 0.000 -0.505
20 60.00 1500.01 381 1210 0.370 10000.000 0.000 0.300 15000.000 0.000 -0.505
21 63.00 1500.01 404 1224 0.370 10000.000 0.000 0.300 15000.000 0.000 -0.505
22 66.00 1500.01 402 1235 0.370 10000.000 0.000 0.300 15000.000 0.000 -0.505
23 69.00 1500.01 362 1259 0.370 10000.000 0.000 0.300 15000.000 0.000 -0.505
24 72.00 1500.01 426 1244 0.370 10000.000 0.000 0.300 15000.000 0.000 -0.505
25 75.00 1500.01 434 1220 0.370 10000.000 0.000 0.300 15000.000 0.000 -0.505
26 78.00 1500.01 385 1201 0.370 10000.000 0.000 0.300 15000.000 0.000 -0.505
27 81.00 1500.01 435 1177 0.370 10000.000 0.000 0.300 15000.000 0.000 -0.505
28 84.00 1500.01 461 1238 0.370 10000.000 0.000 0.300 15000.000 0.000 -0.505
29 87.00 1500.01 376 1197 0.370 10000.000 0.000 0.300 15000.000 0.000 -0.505
30 90.00 1500.01 414 1188 0.370 10000.000 0.000 0.300 15000.000 0.000 -0.505
31 93.00 1500.01 400 1172 0.370 10000.000 0.000 0.300 15000.000 0.000 -0.505
32 96.00 1500.01 429 1220 0.370 10000.000 0.000 0.300 15000.000 0.000 -0.505
33 99.00 1500.01 438 1174 0.370 10000.000 0.000 0.300 15000.000 0.000 -0.505
34 102.00 1500.01 399 1189 0.370 10000.000 0.000 0.300 15000.000 0.000 -0.505
35 105.00 1500.01 390 1190 0.370 10000.000 0.000 0.300 15000.000 0.000 -0.505
36 108.00 1500.01 393 1190 0.370 10000.000 0.000 0.300 15000.000 0.000 -0.505
37 111.00 1500.01 410 1220 0.370 10000.000 0.000 0.300 15000.000 0.000 -0.505
38 114.00 1500.01 406 1217 0.370 10000.000 0.000 0.300 15000.000 0.000 -0.505
39 117.00 1500.01 413 1208 0.370 10000.000 0.000 0.300 15000.000 0.000 -0.505
40 120.00 1500.01 384 1273 0.370 10000.000 0.000 0.300 15000.000 0.000 -0.505
41 123.00 1500.01 335 1214 0.370 10000.000 0.000 0.300 15000.000 0.000 -0.505
42 126.00 1500.01 395 1286 0.370 10000.000 0.000 0.300 15000.000 0.000 -0.505
43 129.00 1500.01 360 1222 0.370 10000.000 0.000 0.300 15000.000 0.000 -0.505
44 132.00 1500.01 365 1338 0.370 10000.000 0.000 0.300 15000.000 0.000 -0.505
45 135.00 1500.01 371 1187 0.370 10000.000 0.000 0.300 15000.000 0.000 -0.505
46 138.00 1500.01 400 1271 0.370 10000.000 0.000 0.300 15000.000 0.000 -0.505
47 141.00 1500.01 402 1221 0.370 10000.000 0.000 0.300 15000.000 0.000 -0.505
48 144.00 1500.01 441 1265 0.370 10000.000 0.000 0.300 15000.000 0.000 -0.505
49 147.00 1500.01 396 1262 0.370 10000.000 0.000 0.300 15000.000 0.000 -0.505
50 150.00 1500.01 412 1240 0.370 10000.000 0.000 0.300 15000.000 0.000 -0.505
51 153.00 1500.01 442 1200 0.370 10000.000 0.000 0.300 15000.000 0.000 -0.505
52 156.00 1500.01 406 1286 0.370 10000.000 0.000 0.300 15000.000 0.000 -0.505
53 159.00 1500.01 383 1291 0.370 10000.000 0.000 0.300 15000.000 0.000 -0.505
54 162.00 1500.01 384 1261 0.370 10000.000 0.000 0.300 15000.000 0.000 -0.505
55 165.00 1500.01 415 1238 0.370 10000.000 0.000 0.300 15000.000 0.000 -0.505
56 168.00 1500.01 378 1306 0.370 10000.000 0.000 0.300 15000.000 0.000 -0.505
57 171.00 1500.01 399 1244 0.370 10000.000 0.000 0.300 15000.000 0.000 -0.505
58 174.00 1500.01 384 1273 0.370 10000.000 0.000 0.300 15000.000 0.000 -0.505
59 177.00 1500.01 417 1197 0.370 10000.000 0.000 0.300 15000.000 0.000 -0.505
60 180.00 1500.01 418 1297 0.370 10000.000 0.000 0.300 15000.000 0.000 -0.505
61 183.00 1500.01 378 1184 0.370 10000.000 0.000 0.300 15000.000 0.000 -0.505
62 186.00 1500.01 411 1237 0.370 10000.000 0.000 0.300 15000.000 0.000 -0.505
63 189.00 1500.01 381 1222 0.370 10000.000 0.000 0.300 15000.000 0.000 -0.505
64 192.00 1500.01 411 1308 0.370 10000.000 0.000 0.300 15000.000 0.000 -0.505
65 195.00 1500.01 411 1182 0.370 10000.000 0.000 0.300 15000.000 0.000 -0.505
66 198.00 1500.01 417 1214 0.370 10000.000 0.000 0.300 15000.000 0.000 -0.505
67 201.00 1500.01 367 1162 0.370 10000.000 0.000 0.300 15000.000 0.000 -0.505
68 204.00 1500.01 385 1212 0.370 10000.000 0.000 0.300 15000.000 0.000 -0.505
69 207.00 1500.01 403 1128 0.370 10000.000 0.000 0.300 15000.000 0.000 -0.505
70 210.00 1500.01 437 1141 0.370 10000.000 0.000 0.300 15000.000 0.000 -0.505
71 213.00 1500.01 403 1133 0.370 10000.000 0.000 0.300 15000.000 0.000 -0.505
72 216.00 1500.01 396 1194 0.370 10000.000 0.000 0.300 15000.000 0.000 -0.505
73 219.00 1500.01 405 1215 0.370 10000.000 0.000 0.300 15000.000 0.000 -0.505
74 222.00 1500.01 413 1219 0.370 10000.000 0.000 0.300 15000.000 0.000 -0.505
75 225.00 1500.01 383 1233 0.370 10000.000 0.000 0.300 15000.000 0.000 -0.505
76 228.00 1500.01 404 1207 0.370 10000.000 0.000 0.300 15000.000 0.000 -0.505
77 231.00 1500.01 388 1188 0.370 10000.000 0.000 0.300 15000.000 0.000 -0.505
78 234.00 1500.01 379 1254 0.370 10000.000 0.000 0.300 15000.000 0.000 -0.505
79 237.00 1500.01 395 1234 0.370 10000.000 0.000 0.300 15000.000 0.000 -0.505
80 240.00 1500.01 372 1223 0.370 10000.000 0.000 0.300 15000.000 0.000 -0.505
81 243.00 1500.01 364 1191 0.370 10000.000 0.000 0.300 15000.000 0.000 -0.505
82 246.00 1500.01 373 1336 0.370 10000.000 0.000 0.300 15000.000 0.000 -0.505
83 249.00 1500.01 375 1247 0.370 10000.000 0.000 0.300 15000.000 0.000 -0.505
84 252.00 1500.01 396 1263 0.370 10000.000 0.000 0.300 15000.000 0.000 -0.505
85 255.00 1500.01 374 1208 0.370 10000.000 0.000 0.300 15000.000 0.000 -0.505
86 258.00 1500.01 394 1315 0.370 10000.000 0.000 0.300 15000.000 0.000 -0.505
87 261.00 1500.01 354 1250 0.370 10000.000 0.000 0.300 15000.000 0.000 -0.505
88 264.00 1500.01 362 1208 0.370 10000.000 0.000 0.300 15000.000 0.000 -0.505
89 267.00 1500.01 414 1192 0.370 10000.000 0.000 0.300 15000.000 0.000 -0.505
90 270.00 1500.01 387 1249 0.370 10000.000 0.000 0.300 15000.000 0.000 -0.505
91 273.00 1500.01 407 1177 0.370 10000.000 0.000 0.300 15000.000 0.000 -0.505
92 276.00 1500.01 449 1242 0.370 10000.000 0.000 0.300 15000.000 0.000 -0.505
93 279.00 1500.01 414 1125 0.370 10000.000 0.000 0.300 15000.000 0.000 -0.505
94 282.00 1500.01 436 1144 0.370 10000.000 0.000 0.300 15000.000 0.000 -0.505
95 285.00 1500.01 418 1216 0.370 10000.000 0.000 0.300 15000.000 0.000 -0.505
96 288.00 1500.01 431 1202 0.370 10000.000 0.000 0.300 15000.000 0.000 -0.505
97 291.00 1500.01 389 1180 0.370 10000.000 0.000 0.300 15000.000 0.000 -0.505
98 294.00 1500.01 409 1210 0.370 10000.000 0.000 0.300 15000.000 0.000 -0.505
99 297.00 1500.01 394 1169 0.370 10000.000 0.000 0.300 15000.000 0.000 -0.505
100 300.00 1500.01 400 1146 0.370 10000.000 0.000 0.300 15000.000 0.000 -0.505
101 303.00 1500.01 389 1163 0.370 10000.000 0.000 0.300 15000.000 0.000 -0.505
102 306.00 1500.01 424 1179 0.370 10000.000 0.000 0.300 15000.000 0.000 -0.505
103 309.00 1500.01 386 1205 0.370 10000.000 0.000 0.300 15000.000 0.000 -0.505
104 312.00 1500.01 430 1262 0.370 10000.000 0.000 0.300 15000.000 0.000 -0.505
105 315.00 1500.01 439 1258 0.370 10000.000 0.000 0.300 15000.000 0.000 -0.505
106 318.00 1500.01 400 1232 0.370 10000.000 0.000 0.300 15000.000 0.000 -0.505
107 321.00 1500.01 389 1213 0.370 10000.000 0.000 0.300 15000.000 0.000 -0.505
108 324.00 1500.01 386 1298 0.370 10000.000 0.000 0.300 15000.000 0.000 -0.505
109 327.00 1500.01 392 1194 0.370 10000.000 0.000 0.300 15000.000 0.000 -0.505
110 330.00 1500.01 400 1234 0.370 10000.000 0.000 0.300 15000.000 0.000 -0.505
111 333.00 1500.01 437 1199 0.370 10000.000 0.000 0.300 15000.000 0.000 -0.505
112 336.00 1500.01 462 1223 0.370 10000.000 0.000 0.300 15000.000 0.000 -0.505
113 339.00 1500.01 398 1192 0.370 10000.000 0.000 0.300 15000.000 0.000 -0.505
114 342.00 1500.01 424 1195 0.370 10000.000 0.000 0.300 15000.000 0.000 -0.505
115 345.00 1500.01 419 1190 0.370 10000.000 0.000 0.300 15000.000 0.000 -0.505
116 348.00 1500.01 387 1276 0.370 10000.000 0.000 0.300 15000.000 0.000 -0.505
117 351.00 1500.01 379 1236 0.370 10000.000 0.000 0.300 15000.000 0.000 -0.505
118 354.00 1500.01 390 1240 0.370 10000.000 0.000 0.300 15000.000 0.000 -0.505
119 357.00 1500.01 391 1210 0.370 10000.000 0.000 0.300 15000.000 0.000 -0.505
120 360.00 1500.01 405 1237 0.370 10000.000 0.000 0.300 15000.000 0.000 -0.505
121 363.00 1500.01 400 1265 0.370 10000.000 0.000 0.300 15000.000 0.000 -0.505
122 366.00 1500.01 364 1254 0.370 10000.000 0.000 0.300 15000.000 0.000 -0.505
123 369.00 1500.01 375 1279 0.370 10000.000 0.000 0.300 15000.000 0.000 -0.505
124 372.00 1500.01 393 1258 0.370 10000.000 0.000 0.300 15000.000 0.000 -0.505
125 375.00 1500.01 394 1259 0.370 10000.000 0.000 0.300 15000.000 0.000 -0.505
126 378.00 1500.01 368 1237 0.370 10000.000 0.000 0.300 15000.000 0.000 -0.505
127 381.00 1500.01 394 1280 0.370 10000.000 0.000 0.300 15000.000 0.000 -0.505
128 384.00 1500.01 400 1247 0.370 10000.000 0.000 0.300 15000.000 0.000 -0.505
129 387.00 1500.01 395 1229 0.370 10000.000 0.000 0.300 15000.000 0.000 -0.505
130 390.00 1500.01 393 1228 0.370 10000.000 0.000 0.300 15000.000 0.000 -0.505
131 393.00 1500.01 390 1221 0.370 10000.000 0.000 0.300 15000.000 0.000 -0.505
132 396.00 1500.01 431 1183 0.370 10000.000 0.000 0.300 15000.000 0.000 -0.505
133 399.00 1500.01 394 1197 0.370 10000.000 0.000 0.300 15000.000 0.000 -0.505
134 402.00 1500.01 438 1292 0.370 10000.000 0.000 0.300 15000.000 0.000 -0.505
135 405.00 1500.01 423 1198 0.370 10000.000 0.000 0.300 15000.000 0.000 -0.505
136 408.00 1500.01 393 1100 0.370 10000.000 0.000 0.300 15000.000 0.000 -0.505
137 411.00 1500.01 411 1125 0.370 10000.000 0.000 0.300 15000.000 0.000 -0.505
138 414.00 1500.01 406 1233 0.370 10000.000 0.000 0.300 15000.000 0.000 -0.505
139 417.00 1500.01 381 1171 0.370 10000.000 0.000 0.300 15000.000 0.000 -0.505
140 420.00 1500.01 403 1209 0.370 10000.000 0.000 0.300 15000.000 0.000 -0.505
141 423.00 1500.01 398 1181 0.370 10000.000 0.000 0.300 15000.000 0.000 -0.505
142 426.00 1500.01 392 1261 0.370 10000.000 0.000 0.300 15000.000 0.000 -0.505
143 429.00 1500.01 408 1227 0.370 10000.000 0.000 0.300 15000.000 0.000 -0.505
144 432.00 1500.01 421 1295 0.370 10000.000 0.000 0.300 15000.000 0.000 -0.505
