# BinNR microsec tot-time (s)  O-Beam AUX Ampl_1(V) f_1(Hz) phase_1(deg) Ampl_2(V) f_2(Hz) phase_2(deg) chi(pos)
0 0.00 1500.00 116 144 0.370 10000.000 0.000 0.300 15000.000 0.000 0.330
1 3.00 1500.00 238 255 0.370 10000.000 0.000 0.300 15000.000 0.000 0.330
2 6.00 1500.00 221 266 0.370 10000.000 0.000 0.300 15000.000 0.000 0.330
3 9.00 1500.00 221 267 0.370 10000.000 0.000 0.300 15000.000 0.000 0.330
4 12.00 1500.00 210 270 0.370 10000.000 0.000 0.300 15000.000 0.000 0.330
5 15.00 1500.00 224 298 0.370 10000.000 0.000 0.300 15000.000 0.000 0.330
6 18.00 1500.00 192 295 0.370 10000.000 0.000 0.300 15000.000 0.000 0.330
7 21.00 1500.00 228 284 0.370 10000.000 0.000 0.300 15000.000 0.000 0.330
8 24.00 1500.00 251 327 0.370 10000.000 0.000 0.300 15000.000 0.000 0.330
9 27.00 1500.00 247 355 0.370 10000.000 0.000 0.300 15000.000 0.000 0.330
10 30.00 1500.00 220 385 0.370 10000.000 0.000 0.300 15000.000 0.000 0.330
11 33.00 1500.00 265 354 0.370 10000.000 0.000 0.300 15000.000 0.000 0.330
12 36.00 1500.00 284 367 0.370 10000.000 0.000 0.300 15000.000 0.000 0.330
13 39.00 1500.00 248 360 0.370 10000.000 0.000 0.300 15000.000 0.000 0.330
14 42.00 1500.00 267 320 0.370 10000.000 0.000 0.300 15000.000 0.000 0.330
15 45.00 1500.00 255 325 0.370 10000.000 0.000 0.300 15000.000 0.000 0.330
16 48.00 1500.00 266 325 0.370 10000.000 0.000 0.300 15000.000 0.000 0.330
17 51.00 1500.00 264 306 0.370 10000.000 0.000 0.300 15000.000 0.000 0.330
18 54.00 1500.00 279 314 0.370 10000.000 0.000 0.300 15000.000 0.000 0.330
19 57.00 1500.00 242 313 0.370 10000.000 0.000 0.300 15000.000 0.000 0.330
20 60.00 1500.00 233 294 0.370 10000.000 0.000 0.300 15000.000 0.000 0.330
21 63.00 1500.00 236 321 0.370 10000.000 0.000 0.300 15000.000 0.000 0.330
22 66.00 1500.00 222 322 0.370 10000.000 0.000 0.300 15000.000 0.000 0.330
23 69.00 1500.00 207 352 0.370 10000.000 0.000 0.300 15000.000 0.000 0.330
24 72.00 1500.00 199 390 0.370 10000.000 0.000 0.300 15000.000 0.000 0.330
25 75.00 1500.00 216 391 0.370 10000.000 0.000 0.300 15000.000 0.000 0.330
26 78.00 1500.00 174 434 0.370 10000.000 0.000 0.300 15000.000 0.000 0.330
27 81.00 1500.00 214 456 0.370 10000.000 0.000 0.300 15000.000 0.000 0.330
28 84.00 1500.00 184 525 0.370 10000.000 0.000 0.300 15000.000 0.000 0.330
29 87.00 1500.00 200 481 0.370 10000.000 0.000 0.300 15000.000 0.000 0.330
30 90.00 1500.00 171 448 0.370 10000.000 0.000 0.300 15000.000 0.000 0.330
31 93.00 1500.00 197 455 0.370 10000.000 0.000 0.300 15000.000 0.000 0.330
32 96.00 1500.00 196 444 0.370 10000.000 0.000 0.300 15000.000 0.000 0.330
33 99.00 1500.00 171 407 0.370 10000.000 0.000 0.300 15000.000 0.000 0.330
34 102.00 1500.00 237 380 0.370 10000.000 0.000 0.300 15000.000 0.000 0.330
35 105.00 1500.00 203 377 0.370 10000.000 0.000 0.300 15000.000 0.000 0.330
36 108.00 1500.00 216 353 0.370 10000.000 0.000 0.300 15000.000 0.000 0.330
37 111.00 1500.00 243 323 0.370 10000.000 0.000 0.300 15000.000 0.000 0.330
38 114.00 1500.00 239 294 0.370 10000.000 0.000 0.300 15000.000 0.000 0.330
39 117.00 1500.00 263 335 0.370 10000.000 0.000 0.300 15000.000 0.000 0.330
40 120.00 1500.00 254 320 0.370 10000.000 0.000 0.300 15000.000 0.000 0.330
41 123.00 1500.00 258 304 0.370 10000.000 0.000 0.300 15000.000 0.000 0.330
42 126.00 1500.00 267 288 0.370 10000.000 0.000 0.300 15000.000 0.000 0.330
43 129.00 1500.00 257 300 0.370 10000.000 0.000 0.300 15000.000 0.000 0.330
44 132.00 1500.00 221 358 0.370 10000.000 0.000 0.300 15000.000 0.000 0.330
45 135.00 1500.00 261 328 0.370 10000.000 0.000 0.300 15000.000 0.000 0.330
46 138.00 1500.00 264 333 0.370 10000.000 0.000 0.300 15000.000 0.000 0.330
47 141.00 1500.00 238 331 0.370 10000.000 0.000 0.300 15000.000 0.000 0.330
48 144.00 1500.00 260 373 0.370 10000.000 0.000 0.300 15000.000 0.000 0.330
49 147.00 1500.00 228 348 0.370 10000.000 0.000 0.300 15000.000 0.000 0.330
50 150.00 1500.00 235 339 0.370 10000.000 0.000 0.300 15000.000 0.000 0.330
51 153.00 1500.00 221 360 0.370 10000.000 0.000 0.300 15000.000 0.000 0.330
52 156.00 1500.00 230 317 0.370 10000.000 0.000 0.300 15000.000 0.000 0.330
53 159.00 1500.00 194 345 0.370 10000.000 0.000 0.300 15000.000 0.000 0.330
54 162.00 1500.00 195 312 0.370 10000.000 0.000 0.300 15000.000 0.000 0.330
55 165.00 1500.00 218 335 0.370 10000.000 0.000 0.300 15000.000 0.000 0.330
56 168.00 1500.00 226 337 0.370 10000.000 0.000 0.300 15000.000 0.000 0.330
57 171.00 1500.00 221 315 0.370 10000.000 0.000 0.300 15000.000 0.000 0.330
58 174.00 1500.00 229 314 0.370 10000.000 0.000 0.300 15000.000 0.000 0.330
59 177.00 1500.00 197 307 0.370 10000.000 0.000 0.300 15000.000 0.000 0.330
60 180.00 1500.00 212 313 0.370 10000.000 0.000 0.300 15000.000 0.000 0.330
61 183.00 1500.00 240 297 0.370 10000.000 0.000 0.300 15000.000 0.000 0.330
62 186.00 1500.00 230 354 0.370 10000.000 0.000 0.300 15000.000 0.000 0.330
63 189.00 1500.00 236 390 0.370 10000.000 0.000 0.300 15000.000 0.000 0.330
64 192.00 1500.00 222 373 0.370 10000.000 0.000 0.300 15000.000 0.000 0.330
65 195.00 1500.00 221 367 0.370 10000.000 0.000 0.300 15000.000 0.000 0.330
66 198.00 1500.00 223 415 0.370 10000.000 0.000 0.300 15000.000 0.000 0.330
67 201.00 1500.00 203 438 0.370 10000.000 0.000 0.300 15000.000 0.000 0.330
68 204.00 1500.00 232 469 0.370 10000.000 0.000 0.300 15000.000 0.000 0.330
69 207.00 1500.00 218 470 0.370 10000.000 0.000 0.300 15000.000 0.000 0.330
70 210.00 1500.00 187 491 0.370 10000.000 0.000 0.300 15000.000 0.000 0.330
71 213.00 1500.00 234 462 0.370 10000.000 0.000 0.300 15000.000 0.000 0.330
72 216.00 1500.00 227 475 0.370 10000.000 0.000 0.300 15000.000 0.000 0.330
73 219.00 1500.00 233 450 0.370 10000.000 0.000 0.300 15000.000 0.000 0.330
74 222.00 1500.00 222 398 0.370 10000.000 0.000 0.300 15000.000 0.000 0.330
75 225.00 1500.00 235 368 0.370 10000.000 0.000 0.300 15000.000 0.000 0.330
76 228.00 1500.00 247 350 0.370 10000.000 0.000 0.300 15000.000 0.000 0.330
77 231.00 1500.00 253 326 0.370 10000.000 0.000 0.300 15000.000 0.000 0.330
78 234.00 1500.00 250 310 0.370 10000.000 0.000 0.300 15000.000 0.000 0.330
79 237.00 1500.00 221 277 0.370 10000.000 0.000 0.300 15000.000 0.000 0.330
80 240.00 1500.00 272 259 0.370 10000.000 0.000 0.300 15000.000 0.000 0.330
81 243.00 1500.00 293 246 0.370 10000.000 0.000 0.300 15000.000 0.000 0.330
82 246.00 1500.00 266 226 0.370 10000.000 0.000 0.300 15000.000 0.000 0.330
83 249.00 1500.00 242 231 0.370 10000.000 0.000 0.300 15000.000 0.000 0.330
84 252.00 1500.00 271 226 0.370 10000.000 0.000 0.300 15000.000 0.000 0.330
85 255.00 1500.00 247 211 0.370 10000.000 0.000 0.300 15000.000 0.000 0.330
86 258.00 1500.00 247 285 0.370 10000.000 0.000 0.300 15000.000 0.000 0.330
87 261.00 1500.00 231 255 0.370 10000.000 0.000 0.300 15000.000 0.000 0.330
88 264.00 1500.00 213 331 0.370 10000.000 0.000 0.300 15000.000 0.000 0.330
89 267.00 1500.00 229 350 0.370 10000.000 0.000 0.300 15000.000 0.000 0.330
90 270.00 1500.00 215 386 0.370 10000.000 0.000 0.300 15000.000 0.000 0.330
91 273.00 1500.00 215 396 0.370 10000.000 0.000 0.300 15000.000 0.000 0.330
92 276.00 1500.00 208 428 0.370 10000.000 0.000 0.300 15000.000 0.000 0.330
93 279.00 1500.00 186 444 0.370 10000.000 0.000 0.300 15000.000 0.000 0.330
94 282.00 1500.00 227 488 0.370 10000.000 0.000 0.300 15000.000 0.000 0.330
95 285.00 1500.00 202 491 0.370 10000.000 0.000 0.300 15000.000 0.000 0.330
96 288.00 1500.00 215 524 0.370 10000.000 0.000 0.300 15000.000 0.000 0.330
97 291.00 1500.00 196 477 0.370 10000.000 0.000 0.300 15000.000 0.000 0.330
98 294.00 1500.00 191 490 0.370 10000.000 0.000 0.300 15000.000 0.000 0.330
99 297.00 1500.00 194 430 0.370 10000.000 0.000 0.300 15000.000 0.000 0.330
100 300.00 1500.00 210 430 0.370 10000.000 0.000 0.300 15000.000 0.000 0.330
101 303.00 1500.00 215 395 0.370 10000.000 0.000 0.300 15000.000 0.000 0.330
102 306.00 1500.00 224 411 0.370 10000.000 0.000 0.300 15000.000 0.000 0.330
103 309.00 1500.00 243 356 0.370 10000.000 0.000 0.300 15000.000 0.000 0.330
104 312.00 1500.00 227 318 0.370 10000.000 0.000 0.300 15000.000 0.000 0.330
105 315.00 1500.00 220 309 0.370 10000.000 0.000 0.300 15000.000 0.000 0.330
106 318.00 1500.00 216 308 0.370 10000.000 0.000 0.300 15000.000 0.000 0.330
107 321.00 1500.00 190 307 0.370 10000.000 0.000 0.300 15000.000 0.000 0.330
108 324.00 1500.00 211 311 0.370 10000.000 0.000 0.300 15000.000 0.000 0.330
109 327.00 1500.00 225 305 0.370 10000.000 0.000 0.300 15000.000 0.000 0.330
110 330.00 1500.00 232 345 0.370 10000.000 0.000 0.300 15000.000 0.000 0.330
111 333.00 1500.00 220 316 0.370 10000.000 0.000 0.300 15000.000 0.000 0.330
112 336.00 1500.00 198 359 0.370 10000.000 0.000 0.300 15000.000 0.000 0.330
113 339.00 1500.00 239 362 0.370 10000.000 0.000 0.300 15000.000 0.000 0.330
114 342.00 1500.00 231 372 0.370 10000.000 0.000 0.300 15000.000 0.000 0.330
115 345.00 1500.00 233 332 0.370 10000.000 0.000 0.300 15000.000 0.000 0.330
116 348.00 1500.00 295 384 0.370 10000.000 0.000 0.300 15000.000 0.000 0.330
117 351.00 1500.00 259 396 0.370 10000.000 0.000 0.300 15000.000 0.000 0.330
118 354.00 1500.00 251 374 0.370 10000.000 0.000 0.300 15000.000 0.000 0.330
119 357.00 1500.00 240 365 0.370 10000.000 0.000 0.300 15000.000 0.000 0.330
120 360.00 1500.00 279 327 0.370 10000.000 0.000 0.300 15000.000 0.000 0.330
121 363.00 1500.00 253 308 0.370 10000.000 0.000 0.300 15000.000 0.000 0.330
122 366.00 1500.00 241 336 0.370 10000.000 0.000 0.300 15000.000 0.000 0.330
123 369.00 1500.00 257 324 0.370 10000.000 0.000 0.300 15000.000 0.000 0.330
124 372.00 1500.00 287 323 0.370 10000.000 0.000 0.300 15000.000 0.000 0.330
125 375.00 1500.00 274 296 0.370 10000.000 0.000 0.300 15000.000 0.000 0.330
126 378.00 1500.00 247 293 0.370 10000.000 0.000 0.300 15000.000 0.000 0.330
127 381.00 1500.00 217 323 0.370 10000.000 0.000 0.300 15000.000 0.000 0.330
128 384.00 1500.00 245 355 0.370 10000.000 0.000 0.300 15000.000 0.000 0.330
129 387.00 1500.00 207 327 0.370 10000.000 0.000 0.300 15000.000 0.000 0.330
130 390.00 1500.00 232 389 0.370 10000.000 0.000 0.300 15000.000 0.000 0.330
131 393.00 1500.00 202 409 0.370 10000.000 0.000 0.300 15000.000 0.000 0.330
132 396.00 1500.00 197 438 0.370 10000.000 0.000 0.300 15000.000 0.000 0.330
133 399.00 1500.00 236 450 0.370 10000.000 0.000 0.300 15000.000 0.000 0.330
134 402.00 1500.00 223 425 0.370 10000.000 0.000 0.300 15000.000 0.000 0.330
135 405.00 1500.00 241 449 0.370 10000.000 0.000 0.300 15000.000 0.000 0.330
136 408.00 1500.00 227 539 0.370 10000.000 0.000 0.300 15000.000 0.000 0.330
137 411.00 1500.00 235 450 0.370 10000.000 0.000 0.300 15000.000 0.000 0.330
138 414.00 1500.00 222 511 0.370 10000.000 0.000 0.300 15000.000 0.000 0.330
139 417.00 1500.00 228 516 0.370 10000.000 0.000 0.300 15000.000 0.000 0.330
140 420.00 1500.00 251 426 0.370 10000.000 0.000 0.300 15000.000 0.000 0.330
141 423.00 1500.00 227 407 0.370 10000.000 0.000 0.300 15000.000 0.000 0.330
142 426.00 1500.00 243 358 0.370 10000.000 0.000 0.300 15000.000 0.000 0.330
143 429.00 1500.00 190 344 0.370 10000.000 0.000 0.300 15000.000 0.000 0.330
144 432.00 1500.00 218 311 0.370 10000.000 0.000 0.300 15000.000 0.000 0.330
