# BinNR microsec tot-time (s)  O-Beam AUX Ampl(V) f(Hz) phase(deg) chi(pos)
0 0.00 1500.01 196 539 1.520 10000.000 0.000 0.319
1 3.00 1500.01 388 1066 1.520 10000.000 0.000 0.319
2 6.00 1500.01 387 1089 1.520 10000.000 0.000 0.319
3 9.00 1500.01 363 1020 1.520 10000.000 0.000 0.319
4 12.00 1500.01 362 1001 1.520 10000.000 0.000 0.319
5 15.00 1500.01 366 1105 1.520 10000.000 0.000 0.319
6 18.00 1500.01 364 1028 1.520 10000.000 0.000 0.319
7 21.00 1500.01 384 1044 1.520 10000.000 0.000 0.319
8 24.00 1500.01 356 1152 1.520 10000.000 0.000 0.319
9 27.00 1500.01 368 1019 1.520 10000.000 0.000 0.319
10 30.00 1500.01 362 1019 1.520 10000.000 0.000 0.319
11 33.00 1500.01 333 1038 1.520 10000.000 0.000 0.319
12 36.00 1500.01 396 1052 1.520 10000.000 0.000 0.319
13 39.00 1500.01 377 1066 1.520 10000.000 0.000 0.319
14 42.00 1500.01 317 1060 1.520 10000.000 0.000 0.319
15 45.00 1500.01 345 1052 1.520 10000.000 0.000 0.319
16 48.00 1500.01 388 1100 1.520 10000.000 0.000 0.319
17 51.00 1500.01 374 1015 1.520 10000.000 0.000 0.319
18 54.00 1500.01 383 1038 1.520 10000.000 0.000 0.319
19 57.00 1500.01 382 1037 1.520 10000.000 0.000 0.319
20 60.00 1500.01 385 1049 1.520 10000.000 0.000 0.319
21 63.00 1500.01 371 1103 1.520 10000.000 0.000 0.319
22 66.00 1500.01 380 1131 1.520 10000.000 0.000 0.319
23 69.00 1500.01 349 1046 1.520 10000.000 0.000 0.319
24 72.00 1500.01 339 1015 1.520 10000.000 0.000 0.319
25 75.00 1500.01 379 1044 1.520 10000.000 0.000 0.319
26 78.00 1500.01 391 1039 1.520 10000.000 0.000 0.319
27 81.00 1500.01 368 1083 1.520 10000.000 0.000 0.319
28 84.00 1500.01 364 1069 1.520 10000.000 0.000 0.319
29 87.00 1500.01 383 1117 1.520 10000.000 0.000 0.319
30 90.00 1500.01 340 1047 1.520 10000.000 0.000 0.319
31 93.00 1500.01 334 1052 1.520 10000.000 0.000 0.319
32 96.00 1500.01 402 1047 1.520 10000.000 0.000 0.319
33 99.00 1500.01 385 1033 1.520 10000.000 0.000 0.319
34 102.00 1500.01 358 1093 1.520 10000.000 0.000 0.319
35 105.00 1500.01 381 1066 1.520 10000.000 0.000 0.319
36 108.00 1500.01 372 1026 1.520 10000.000 0.000 0.319
37 111.00 1500.01 366 1035 1.520 10000.000 0.000 0.319
38 114.00 1500.01 391 1045 1.520 10000.000 0.000 0.319
39 117.00 1500.01 395 1070 1.520 10000.000 0.000 0.319
40 120.00 1500.01 376 1119 1.520 10000.000 0.000 0.319
41 123.00 1500.01 347 1064 1.520 10000.000 0.000 0.319
42 126.00 1500.01 360 1077 1.520 10000.000 0.000 0.319
43 129.00 1500.01 354 1030 1.520 10000.000 0.000 0.319
44 132.00 1500.01 375 1057 1.520 10000.000 0.000 0.319
45 135.00 1500.01 403 1041 1.520 10000.000 0.000 0.319
46 138.00 1500.01 369 1074 1.520 10000.000 0.000 0.319
47 141.00 1500.01 368 1026 1.520 10000.000 0.000 0.319
48 144.00 1500.01 349 1068 1.520 10000.000 0.000 0.319
49 147.00 1500.01 366 1051 1.520 10000.000 0.000 0.319
50 150.00 1500.01 378 1108 1.520 10000.000 0.000 0.319
51 153.00 1500.01 344 1054 1.520 10000.000 0.000 0.319
52 156.00 1500.01 365 1057 1.520 10000.000 0.000 0.319
53 159.00 1500.01 364 1082 1.520 10000.000 0.000 0.319
54 162.00 1500.01 358 1096 1.520 10000.000 0.000 0.319
55 165.00 1500.01 376 1010 1.520 10000.000 0.000 0.319
56 168.00 1500.01 410 1132 1.520 10000.000 0.000 0.319
57 171.00 1500.01 377 1060 1.520 10000.000 0.000 0.319
58 174.00 1500.01 374 1062 1.520 10000.000 0.000 0.319
59 177.00 1500.01 360 1015 1.520 10000.000 0.000 0.319
60 180.00 1500.01 369 1020 1.520 10000.000 0.000 0.319
61 183.00 1500.01 390 1068 1.520 10000.000 0.000 0.319
62 186.00 1500.01 399 1079 1.520 10000.000 0.000 0.319
63 189.00 1500.01 384 1049 1.520 10000.000 0.000 0.319
64 192.00 1500.01 332 1082 1.520 10000.000 0.000 0.319
65 195.00 1500.01 392 1105 1.520 10000.000 0.000 0.319
66 198.00 1500.01 361 1087 1.520 10000.000 0.000 0.319
67 201.00 1500.01 367 1096 1.520 10000.000 0.000 0.319
68 204.00 1500.01 385 1122 1.520 10000.000 0.000 0.319
69 207.00 1500.01 348 1083 1.520 10000.000 0.000 0.319
70 210.00 1500.01 369 1079 1.520 10000.000 0.000 0.319
71 213.00 1500.01 393 1065 1.520 10000.000 0.000 0.319
72 216.00 1500.01 347 1063 1.520 10000.000 0.000 0.319
73 219.00 1500.01 370 1049 1.520 10000.000 0.000 0.319
74 222.00 1500.01 350 1073 1.520 10000.000 0.000 0.319
75 225.00 1500.01 404 1087 1.520 10000.000 0.000 0.319
76 228.00 1500.01 358 1061 1.520 10000.000 0.000 0.319
77 231.00 1500.01 348 1070 1.520 10000.000 0.000 0.319
78 234.00 1500.01 360 1091 1.520 10000.000 0.000 0.319
79 237.00 1500.01 357 1041 1.520 10000.000 0.000 0.319
80 240.00 1500.01 368 1083 1.520 10000.000 0.000 0.319
81 243.00 1500.01 397 1066 1.520 10000.000 0.000 0.319
82 246.00 1500.01 345 1043 1.520 10000.000 0.000 0.319
83 249.00 1500.01 377 1002 1.520 10000.000 0.000 0.319
84 252.00 1500.01 350 1062 1.520 10000.000 0.000 0.319
85 255.00 1500.01 407 1061 1.520 10000.000 0.000 0.319
86 258.00 1500.01 389 1106 1.520 10000.000 0.000 0.319
87 261.00 1500.01 376 1088 1.520 10000.000 0.000 0.319
88 264.00 1500.01 344 1067 1.520 10000.000 0.000 0.319
89 267.00 1500.01 386 1048 1.520 10000.000 0.000 0.319
90 270.00 1500.01 338 1039 1.520 10000.000 0.000 0.319
91 273.00 1500.01 415 1029 1.520 10000.000 0.000 0.319
92 276.00 1500.01 366 1066 1.520 10000.000 0.000 0.319
93 279.00 1500.01 390 1084 1.520 10000.000 0.000 0.319
94 282.00 1500.01 355 1050 1.520 10000.000 0.000 0.319
95 285.00 1500.01 375 1047 1.520 10000.000 0.000 0.319
96 288.00 1500.01 352 1069 1.520 10000.000 0.000 0.319
97 291.00 1500.01 413 1037 1.520 10000.000 0.000 0.319
98 294.00 1500.01 355 1101 1.520 10000.000 0.000 0.319
99 297.00 1500.01 360 1080 1.520 10000.000 0.000 0.319
100 300.00 1500.01 374 1098 1.520 10000.000 0.000 0.319
101 303.00 1500.01 377 1097 1.520 10000.000 0.000 0.319
102 306.00 1500.01 350 1029 1.520 10000.000 0.000 0.319
103 309.00 1500.01 357 1044 1.520 10000.000 0.000 0.319
104 312.00 1500.01 369 1090 1.520 10000.000 0.000 0.319
105 315.00 1500.01 368 1049 1.520 10000.000 0.000 0.319
106 318.00 1500.01 402 1000 1.520 10000.000 0.000 0.319
107 321.00 1500.01 350 1099 1.520 10000.000 0.000 0.319
108 324.00 1500.01 356 1050 1.520 10000.000 0.000 0.319
109 327.00 1500.01 373 1074 1.520 10000.000 0.000 0.319
110 330.00 1500.01 387 1070 1.520 10000.000 0.000 0.319
111 333.00 1500.01 358 1047 1.520 10000.000 0.000 0.319
112 336.00 1500.01 369 1059 1.520 10000.000 0.000 0.319
113 339.00 1500.01 342 1034 1.520 10000.000 0.000 0.319
114 342.00 1500.01 385 1094 1.520 10000.000 0.000 0.319
115 345.00 1500.01 357 1027 1.520 10000.000 0.000 0.319
116 348.00 1500.01 390 1054 1.520 10000.000 0.000 0.319
117 351.00 1500.01 351 1032 1.520 10000.000 0.000 0.319
118 354.00 1500.01 358 1050 1.520 10000.000 0.000 0.319
119 357.00 1500.01 359 1065 1.520 10000.000 0.000 0.319
120 360.00 1500.01 380 1071 1.520 10000.000 0.000 0.319
121 363.00 1500.01 388 1061 1.520 10000.000 0.000 0.319
122 366.00 1500.01 382 1089 1.520 10000.000 0.000 0.319
123 369.00 1500.01 396 1007 1.520 10000.000 0.000 0.319
124 372.00 1500.01 398 1013 1.520 10000.000 0.000 0.319
125 375.00 1500.01 351 1026 1.520 10000.000 0.000 0.319
126 378.00 1500.01 407 1107 1.520 10000.000 0.000 0.319
127 381.00 1500.01 376 1061 1.520 10000.000 0.000 0.319
128 384.00 1500.01 407 1067 1.520 10000.000 0.000 0.319
129 387.00 1500.01 332 1041 1.520 10000.000 0.000 0.319
130 390.00 1500.01 373 1086 1.520 10000.000 0.000 0.319
131 393.00 1500.01 365 1003 1.520 10000.000 0.000 0.319
132 396.00 1500.01 353 1031 1.520 10000.000 0.000 0.319
133 399.00 1500.01 393 1031 1.520 10000.000 0.000 0.319
134 402.00 1500.01 369 1066 1.520 10000.000 0.000 0.319
135 405.00 1500.01 343 1092 1.520 10000.000 0.000 0.319
136 408.00 1500.01 369 1023 1.520 10000.000 0.000 0.319
137 411.00 1500.01 353 1057 1.520 10000.000 0.000 0.319
138 414.00 1500.01 374 1138 1.520 10000.000 0.000 0.319
139 417.00 1500.01 372 1040 1.520 10000.000 0.000 0.319
140 420.00 1500.01 372 1051 1.520 10000.000 0.000 0.319
141 423.00 1500.01 406 1048 1.520 10000.000 0.000 0.319
142 426.00 1500.01 351 1055 1.520 10000.000 0.000 0.319
143 429.00 1500.01 384 1053 1.520 10000.000 0.000 0.319
144 432.00 1500.01 357 1140 1.520 10000.000 0.000 0.319
