# BinNR microsec tot-time (s)  O-Beam AUX Ampl(V) f(Hz) phase(deg) chi(pos)
0 0.00 1200.00 169 430 0.306 20000.000 0.000 -0.472
1 3.00 1200.00 339 832 0.306 20000.000 0.000 -0.472
2 6.00 1200.00 322 849 0.306 20000.000 0.000 -0.472
3 9.00 1200.00 315 872 0.306 20000.000 0.000 -0.472
4 12.00 1200.00 346 905 0.306 20000.000 0.000 -0.472
5 15.00 1200.00 344 868 0.306 20000.000 0.000 -0.472
6 18.00 1200.00 320 866 0.306 20000.000 0.000 -0.472
7 21.00 1200.00 379 886 0.306 20000.000 0.000 -0.472
8 24.00 1200.00 360 888 0.306 20000.000 0.000 -0.472
9 27.00 1200.00 345 894 0.306 20000.000 0.000 -0.472
10 30.00 1200.00 378 940 0.306 20000.000 0.000 -0.472
11 33.00 1200.00 359 893 0.306 20000.000 0.000 -0.472
12 36.00 1200.00 359 935 0.306 20000.000 0.000 -0.472
13 39.00 1200.00 355 936 0.306 20000.000 0.000 -0.472
14 42.00 1200.00 346 969 0.306 20000.000 0.000 -0.472
15 45.00 1200.00 345 929 0.306 20000.000 0.000 -0.472
16 48.00 1200.00 348 966 0.306 20000.000 0.000 -0.472
17 51.00 1200.00 322 876 0.306 20000.000 0.000 -0.472
18 54.00 1200.00 362 910 0.306 20000.000 0.000 -0.472
19 57.00 1200.00 343 860 0.306 20000.000 0.000 -0.472
20 60.00 1200.00 328 813 0.306 20000.000 0.000 -0.472
21 63.00 1200.00 344 812 0.306 20000.000 0.000 -0.472
22 66.00 1200.00 355 765 0.306 20000.000 0.000 -0.472
23 69.00 1200.00 339 790 0.306 20000.000 0.000 -0.472
24 72.00 1200.00 333 822 0.306 20000.000 0.000 -0.472
25 75.00 1200.00 356 779 0.306 20000.000 0.000 -0.472
26 78.00 1200.00 342 904 0.306 20000.000 0.000 -0.472
27 81.00 1200.00 328 813 0.306 20000.000 0.000 -0.472
28 84.00 1200.00 330 870 0.306 20000.000 0.000 -0.472
29 87.00 1200.00 365 859 0.306 20000.000 0.000 -0.472
30 90.00 1200.00 350 986 0.306 20000.000 0.000 -0.472
31 93.00 1200.00 358 939 0.306 20000.000 0.000 -0.472
32 96.00 1200.00 338 975 0.306 20000.000 0.000 -0.472
33 99.00 1200.00 327 908 0.306 20000.000 0.000 -0.472
34 102.00 1200.00 333 905 0.306 20000.000 0.000 -0.472
35 105.00 1200.00 354 836 0.306 20000.000 0.000 -0.472
36 108.00 1200.00 348 857 0.306 20000.000 0.000 -0.472
37 111.00 1200.00 330 833 0.306 20000.000 0.000 -0.472
38 114.00 1200.00 363 820 0.306 20000.000 0.000 -0.472
39 117.00 1200.00 327 777 0.306 20000.000 0.000 -0.472
40 120.00 1200.00 342 827 0.306 20000.000 0.000 -0.472
41 123.00 1200.00 349 823 0.306 20000.000 0.000 -0.472
42 126.00 1200.00 361 789 0.306 20000.000 0.000 -0.472
43 129.00 1200.00 325 820 0.306 20000.000 0.000 -0.472
44 132.00 1200.00 339 896 0.306 20000.000 0.000 -0.472
45 135.00 1200.00 334 900 0.306 20000.000 0.000 -0.472
46 138.00 1200.00 349 971 0.306 20000.000 0.000 -0.472
47 141.00 1200.00 323 927 0.306 20000.000 0.000 -0.472
48 144.00 1200.00 325 980 0.306 20000.000 0.000 -0.472
49 147.00 1200.00 310 927 0.306 20000.000 0.000 -0.472
50 150.00 1200.00 341 930 0.306 20000.000 0.000 -0.472
51 153.00 1200.00 324 925 0.306 20000.000 0.000 -0.472
52 156.00 1200.00 339 905 0.306 20000.000 0.000 -0.472
53 159.00 1200.00 316 885 0.306 20000.000 0.000 -0.472
54 162.00 1200.00 346 820 0.306 20000.000 0.000 -0.472
55 165.00 1200.00 333 828 0.306 20000.000 0.000 -0.472
56 168.00 1200.00 356 774 0.306 20000.000 0.000 -0.472
57 171.00 1200.00 355 775 0.306 20000.000 0.000 -0.472
58 174.00 1200.00 337 805 0.306 20000.000 0.000 -0.472
59 177.00 1200.00 348 816 0.306 20000.000 0.000 -0.472
60 180.00 1200.00 312 896 0.306 20000.000 0.000 -0.472
61 183.00 1200.00 367 885 0.306 20000.000 0.000 -0.472
62 186.00 1200.00 347 935 0.306 20000.000 0.000 -0.472
63 189.00 1200.00 346 907 0.306 20000.000 0.000 -0.472
64 192.00 1200.00 325 927 0.306 20000.000 0.000 -0.472
65 195.00 1200.00 319 997 0.306 20000.000 0.000 -0.472
66 198.00 1200.00 321 942 0.306 20000.000 0.000 -0.472
67 201.00 1200.00 316 856 0.306 20000.000 0.000 -0.472
68 204.00 1200.00 336 904 0.306 20000.000 0.000 -0.472
69 207.00 1200.00 327 854 0.306 20000.000 0.000 -0.472
70 210.00 1200.00 313 851 0.306 20000.000 0.000 -0.472
71 213.00 1200.00 335 828 0.306 20000.000 0.000 -0.472
72 216.00 1200.00 361 763 0.306 20000.000 0.000 -0.472
73 219.00 1200.00 329 762 0.306 20000.000 0.000 -0.472
74 222.00 1200.00 364 856 0.306 20000.000 0.000 -0.472
75 225.00 1200.00 343 821 0.306 20000.000 0.000 -0.472
76 228.00 1200.00 375 923 0.306 20000.000 0.000 -0.472
77 231.00 1200.00 349 838 0.306 20000.000 0.000 -0.472
78 234.00 1200.00 336 886 0.306 20000.000 0.000 -0.472
79 237.00 1200.00 372 906 0.306 20000.000 0.000 -0.472
80 240.00 1200.00 351 954 0.306 20000.000 0.000 -0.472
81 243.00 1200.00 355 946 0.306 20000.000 0.000 -0.472
82 246.00 1200.00 341 983 0.306 20000.000 0.000 -0.472
83 249.00 1200.00 374 955 0.306 20000.000 0.000 -0.472
84 252.00 1200.00 357 899 0.306 20000.000 0.000 -0.472
85 255.00 1200.00 340 856 0.306 20000.000 0.000 -0.472
86 258.00 1200.00 325 857 0.306 20000.000 0.000 -0.472
87 261.00 1200.00 340 818 0.306 20000.000 0.000 -0.472
88 264.00 1200.00 340 855 0.306 20000.000 0.000 -0.472
89 267.00 1200.00 341 839 0.306 20000.000 0.000 -0.472
90 270.00 1200.00 343 860 0.306 20000.000 0.000 -0.472
91 273.00 1200.00 338 808 0.306 20000.000 0.000 -0.472
92 276.00 1200.00 343 828 0.306 20000.000 0.000 -0.472
93 279.00 1200.00 312 897 0.306 20000.000 0.000 -0.472
94 282.00 1200.00 318 822 0.306 20000.000 0.000 -0.472
95 285.00 1200.00 343 899 0.306 20000.000 0.000 -0.472
96 288.00 1200.00 369 932 0.306 20000.000 0.000 -0.472
97 291.00 1200.00 306 986 0.306 20000.000 0.000 -0.472
98 294.00 1200.00 344 967 0.306 20000.000 0.000 -0.472
99 297.00 1200.00 348 925 0.306 20000.000 0.000 -0.472
100 300.00 1200.00 327 901 0.306 20000.000 0.000 -0.472
101 303.00 1200.00 358 959 0.306 20000.000 0.000 -0.472
102 306.00 1200.00 355 827 0.306 20000.000 0.000 -0.472
103 309.00 1200.00 344 849 0.306 20000.000 0.000 -0.472
104 312.00 1200.00 359 781 0.306 20000.000 0.000 -0.472
105 315.00 1200.00 350 779 0.306 20000.000 0.000 -0.472
106 318.00 1200.00 334 797 0.306 20000.000 0.000 -0.472
107 321.00 1200.00 333 792 0.306 20000.000 0.000 -0.472
108 324.00 1200.00 348 866 0.306 20000.000 0.000 -0.472
109 327.00 1200.00 335 869 0.306 20000.000 0.000 -0.472
110 330.00 1200.00 311 887 0.306 20000.000 0.000 -0.472
111 333.00 1200.00 312 872 0.306 20000.000 0.000 -0.472
112 336.00 1200.00 317 935 0.306 20000.000 0.000 -0.472
113 339.00 1200.00 352 924 0.306 20000.000 0.000 -0.472
114 342.00 1200.00 321 927 0.306 20000.000 0.000 -0.472
115 345.00 1200.00 381 890 0.306 20000.000 0.000 -0.472
116 348.00 1200.00 353 926 0.306 20000.000 0.000 -0.472
117 351.00 1200.00 331 904 0.306 20000.000 0.000 -0.472
118 354.00 1200.00 363 922 0.306 20000.000 0.000 -0.472
119 357.00 1200.00 365 885 0.306 20000.000 0.000 -0.472
120 360.00 1200.00 375 853 0.306 20000.000 0.000 -0.472
121 363.00 1200.00 365 864 0.306 20000.000 0.000 -0.472
122 366.00 1200.00 330 819 0.306 20000.000 0.000 -0.472
123 369.00 1200.00 356 787 0.306 20000.000 0.000 -0.472
124 372.00 1200.00 351 843 0.306 20000.000 0.000 -0.472
125 375.00 1200.00 319 813 0.306 20000.000 0.000 -0.472
126 378.00 1200.00 350 863 0.306 20000.000 0.000 -0.472
127 381.00 1200.00 318 872 0.306 20000.000 0.000 -0.472
128 384.00 1200.00 327 901 0.306 20000.000 0.000 -0.472
129 387.00 1200.00 339 935 0.306 20000.000 0.000 -0.472
130 390.00 1200.00 328 923 0.306 20000.000 0.000 -0.472
131 393.00 1200.00 335 943 0.306 20000.000 0.000 -0.472
132 396.00 1200.00 331 957 0.306 20000.000 0.000 -0.472
133 399.00 1200.00 323 919 0.306 20000.000 0.000 -0.472
134 402.00 1200.00 317 938 0.306 20000.000 0.000 -0.472
135 405.00 1200.00 330 872 0.306 20000.000 0.000 -0.472
136 408.00 1200.00 346 923 0.306 20000.000 0.000 -0.472
137 411.00 1200.00 336 843 0.306 20000.000 0.000 -0.472
138 414.00 1200.00 381 823 0.306 20000.000 0.000 -0.472
139 417.00 1200.00 340 842 0.306 20000.000 0.000 -0.472
140 420.00 1200.00 376 880 0.306 20000.000 0.000 -0.472
141 423.00 1200.00 351 854 0.306 20000.000 0.000 -0.472
