# BinNR microsec tot-time (s)  O-Beam AUX Ampl(V) f(Hz) phase(deg) chi(pos)
0 0.00 1200.01 155 423 0.500 20000.000 0.000 -0.461
1 3.00 1200.01 313 824 0.500 20000.000 0.000 -0.461
2 6.00 1200.01 291 891 0.500 20000.000 0.000 -0.461
3 9.00 1200.01 337 855 0.500 20000.000 0.000 -0.461
4 12.00 1200.01 299 836 0.500 20000.000 0.000 -0.461
5 15.00 1200.01 349 828 0.500 20000.000 0.000 -0.461
6 18.00 1200.01 332 788 0.500 20000.000 0.000 -0.461
7 21.00 1200.01 340 775 0.500 20000.000 0.000 -0.461
8 24.00 1200.01 348 784 0.500 20000.000 0.000 -0.461
9 27.00 1200.01 349 846 0.500 20000.000 0.000 -0.461
10 30.00 1200.01 358 844 0.500 20000.000 0.000 -0.461
11 33.00 1200.01 346 853 0.500 20000.000 0.000 -0.461
12 36.00 1200.01 350 892 0.500 20000.000 0.000 -0.461
13 39.00 1200.01 362 951 0.500 20000.000 0.000 -0.461
14 42.00 1200.01 348 962 0.500 20000.000 0.000 -0.461
15 45.00 1200.01 334 907 0.500 20000.000 0.000 -0.461
16 48.00 1200.01 318 930 0.500 20000.000 0.000 -0.461
17 51.00 1200.01 317 878 0.500 20000.000 0.000 -0.461
18 54.00 1200.01 344 946 0.500 20000.000 0.000 -0.461
19 57.00 1200.01 312 830 0.500 20000.000 0.000 -0.461
20 60.00 1200.01 341 743 0.500 20000.000 0.000 -0.461
21 63.00 1200.01 321 754 0.500 20000.000 0.000 -0.461
22 66.00 1200.01 324 736 0.500 20000.000 0.000 -0.461
23 69.00 1200.01 316 712 0.500 20000.000 0.000 -0.461
24 72.00 1200.01 371 690 0.500 20000.000 0.000 -0.461
25 75.00 1200.01 309 722 0.500 20000.000 0.000 -0.461
26 78.00 1200.01 344 760 0.500 20000.000 0.000 -0.461
27 81.00 1200.01 319 819 0.500 20000.000 0.000 -0.461
28 84.00 1200.01 352 852 0.500 20000.000 0.000 -0.461
29 87.00 1200.01 354 919 0.500 20000.000 0.000 -0.461
30 90.00 1200.01 353 943 0.500 20000.000 0.000 -0.461
31 93.00 1200.01 324 907 0.500 20000.000 0.000 -0.461
32 96.00 1200.01 273 974 0.500 20000.000 0.000 -0.461
33 99.00 1200.01 318 906 0.500 20000.000 0.000 -0.461
34 102.00 1200.01 311 973 0.500 20000.000 0.000 -0.461
35 105.00 1200.01 323 856 0.500 20000.000 0.000 -0.461
36 108.00 1200.01 316 794 0.500 20000.000 0.000 -0.461
37 111.00 1200.01 331 764 0.500 20000.000 0.000 -0.461
38 114.00 1200.01 310 724 0.500 20000.000 0.000 -0.461
39 117.00 1200.01 328 693 0.500 20000.000 0.000 -0.461
40 120.00 1200.01 344 678 0.500 20000.000 0.000 -0.461
41 123.00 1200.01 302 684 0.500 20000.000 0.000 -0.461
42 126.00 1200.01 343 809 0.500 20000.000 0.000 -0.461
43 129.00 1200.01 328 813 0.500 20000.000 0.000 -0.461
44 132.00 1200.01 323 810 0.500 20000.000 0.000 -0.461
45 135.00 1200.01 357 879 0.500 20000.000 0.000 -0.461
46 138.00 1200.01 330 907 0.500 20000.000 0.000 -0.461
47 141.00 1200.01 338 941 0.500 20000.000 0.000 -0.461
48 144.00 1200.01 385 968 0.500 20000.000 0.000 -0.461
49 147.00 1200.01 327 877 0.500 20000.000 0.000 -0.461
50 150.00 1200.01 342 951 0.500 20000.000 0.000 -0.461
51 153.00 1200.01 314 904 0.500 20000.000 0.000 -0.461
52 156.00 1200.01 291 840 0.500 20000.000 0.000 -0.461
53 159.00 1200.01 314 762 0.500 20000.000 0.000 -0.461
54 162.00 1200.01 342 699 0.500 20000.000 0.000 -0.461
55 165.00 1200.01 324 709 0.500 20000.000 0.000 -0.461
56 168.00 1200.01 356 670 0.500 20000.000 0.000 -0.461
57 171.00 1200.01 333 730 0.500 20000.000 0.000 -0.461
58 174.00 1200.01 355 733 0.500 20000.000 0.000 -0.461
59 177.00 1200.01 331 813 0.500 20000.000 0.000 -0.461
60 180.00 1200.01 391 874 0.500 20000.000 0.000 -0.461
61 183.00 1200.01 382 906 0.500 20000.000 0.000 -0.461
62 186.00 1200.01 323 957 0.500 20000.000 0.000 -0.461
63 189.00 1200.01 348 967 0.500 20000.000 0.000 -0.461
64 192.00 1200.01 335 954 0.500 20000.000 0.000 -0.461
65 195.00 1200.01 322 951 0.500 20000.000 0.000 -0.461
66 198.00 1200.01 323 931 0.500 20000.000 0.000 -0.461
67 201.00 1200.01 346 846 0.500 20000.000 0.000 -0.461
68 204.00 1200.01 319 808 0.500 20000.000 0.000 -0.461
69 207.00 1200.01 309 783 0.500 20000.000 0.000 -0.461
70 210.00 1200.01 291 788 0.500 20000.000 0.000 -0.461
71 213.00 1200.01 305 697 0.500 20000.000 0.000 -0.461
72 216.00 1200.01 351 709 0.500 20000.000 0.000 -0.461
73 219.00 1200.01 342 669 0.500 20000.000 0.000 -0.461
74 222.00 1200.01 347 686 0.500 20000.000 0.000 -0.461
75 225.00 1200.01 363 716 0.500 20000.000 0.000 -0.461
76 228.00 1200.01 360 766 0.500 20000.000 0.000 -0.461
77 231.00 1200.01 302 836 0.500 20000.000 0.000 -0.461
78 234.00 1200.01 340 847 0.500 20000.000 0.000 -0.461
79 237.00 1200.01 345 933 0.500 20000.000 0.000 -0.461
80 240.00 1200.01 338 918 0.500 20000.000 0.000 -0.461
81 243.00 1200.01 360 908 0.500 20000.000 0.000 -0.461
82 246.00 1200.01 304 1021 0.500 20000.000 0.000 -0.461
83 249.00 1200.01 327 933 0.500 20000.000 0.000 -0.461
84 252.00 1200.01 326 867 0.500 20000.000 0.000 -0.461
85 255.00 1200.01 362 844 0.500 20000.000 0.000 -0.461
86 258.00 1200.01 316 833 0.500 20000.000 0.000 -0.461
87 261.00 1200.01 338 751 0.500 20000.000 0.000 -0.461
88 264.00 1200.01 314 710 0.500 20000.000 0.000 -0.461
89 267.00 1200.01 324 646 0.500 20000.000 0.000 -0.461
90 270.00 1200.01 322 624 0.500 20000.000 0.000 -0.461
91 273.00 1200.01 311 686 0.500 20000.000 0.000 -0.461
92 276.00 1200.01 329 761 0.500 20000.000 0.000 -0.461
93 279.00 1200.01 320 840 0.500 20000.000 0.000 -0.461
94 282.00 1200.01 338 894 0.500 20000.000 0.000 -0.461
95 285.00 1200.01 311 935 0.500 20000.000 0.000 -0.461
96 288.00 1200.01 326 919 0.500 20000.000 0.000 -0.461
97 291.00 1200.01 308 968 0.500 20000.000 0.000 -0.461
98 294.00 1200.01 374 970 0.500 20000.000 0.000 -0.461
99 297.00 1200.01 290 932 0.500 20000.000 0.000 -0.461
100 300.00 1200.01 336 900 0.500 20000.000 0.000 -0.461
101 303.00 1200.01 340 835 0.500 20000.000 0.000 -0.461
102 306.00 1200.01 331 820 0.500 20000.000 0.000 -0.461
103 309.00 1200.01 335 809 0.500 20000.000 0.000 -0.461
104 312.00 1200.01 347 787 0.500 20000.000 0.000 -0.461
105 315.00 1200.01 336 730 0.500 20000.000 0.000 -0.461
106 318.00 1200.01 328 703 0.500 20000.000 0.000 -0.461
107 321.00 1200.01 328 698 0.500 20000.000 0.000 -0.461
108 324.00 1200.01 350 696 0.500 20000.000 0.000 -0.461
109 327.00 1200.01 323 776 0.500 20000.000 0.000 -0.461
110 330.00 1200.01 336 811 0.500 20000.000 0.000 -0.461
111 333.00 1200.01 320 868 0.500 20000.000 0.000 -0.461
112 336.00 1200.01 299 956 0.500 20000.000 0.000 -0.461
113 339.00 1200.01 313 945 0.500 20000.000 0.000 -0.461
114 342.00 1200.01 297 945 0.500 20000.000 0.000 -0.461
115 345.00 1200.01 332 928 0.500 20000.000 0.000 -0.461
116 348.00 1200.01 331 936 0.500 20000.000 0.000 -0.461
117 351.00 1200.01 355 874 0.500 20000.000 0.000 -0.461
118 354.00 1200.01 349 801 0.500 20000.000 0.000 -0.461
119 357.00 1200.01 303 798 0.500 20000.000 0.000 -0.461
120 360.00 1200.01 353 730 0.500 20000.000 0.000 -0.461
121 363.00 1200.01 352 661 0.500 20000.000 0.000 -0.461
122 366.00 1200.01 338 719 0.500 20000.000 0.000 -0.461
123 369.00 1200.01 322 681 0.500 20000.000 0.000 -0.461
124 372.00 1200.01 342 662 0.500 20000.000 0.000 -0.461
125 375.00 1200.01 318 735 0.500 20000.000 0.000 -0.461
126 378.00 1200.01 331 777 0.500 20000.000 0.000 -0.461
127 381.00 1200.01 320 840 0.500 20000.000 0.000 -0.461
128 384.00 1200.01 315 851 0.500 20000.000 0.000 -0.461
129 387.00 1200.01 287 912 0.500 20000.000 0.000 -0.461
130 390.00 1200.01 351 883 0.500 20000.000 0.000 -0.461
131 393.00 1200.01 327 887 0.500 20000.000 0.000 -0.461
132 396.00 1200.01 312 971 0.500 20000.000 0.000 -0.461
133 399.00 1200.01 320 924 0.500 20000.000 0.000 -0.461
134 402.00 1200.01 316 906 0.500 20000.000 0.000 -0.461
135 405.00 1200.01 337 819 0.500 20000.000 0.000 -0.461
136 408.00 1200.01 345 829 0.500 20000.000 0.000 -0.461
137 411.00 1200.01 329 742 0.500 20000.000 0.000 -0.461
138 414.00 1200.01 334 743 0.500 20000.000 0.000 -0.461
139 417.00 1200.01 340 796 0.500 20000.000 0.000 -0.461
140 420.00 1200.01 319 742 0.500 20000.000 0.000 -0.461
141 423.00 1200.01 341 727 0.500 20000.000 0.000 -0.461
