# BinNR microsec tot-time (s)  O-Beam AUX Ampl(V) f(Hz) phase(deg) chi(pos)
1 1.00 2400.00 504 988 5.000 100000.000 0.000 0.703
2 2.00 2400.00 531 1082 5.000 100000.000 0.000 0.703
3 3.00 2400.00 478 967 5.000 100000.000 0.000 0.703
4 4.00 2400.00 498 1095 5.000 100000.000 0.000 0.703
5 5.00 2400.00 464 1029 5.000 100000.000 0.000 0.703
6 6.00 2400.00 525 1045 5.000 100000.000 0.000 0.703
7 7.00 2400.00 516 1008 5.000 100000.000 0.000 0.703
8 8.00 2400.00 499 1061 5.000 100000.000 0.000 0.703
9 9.00 2400.00 497 1047 5.000 100000.000 0.000 0.703
10 10.00 2400.00 514 1133 5.000 100000.000 0.000 0.703
11 11.00 2400.00 475 1019 5.000 100000.000 0.000 0.703
12 12.00 2400.00 485 1056 5.000 100000.000 0.000 0.703
13 13.00 2400.00 504 1065 5.000 100000.000 0.000 0.703
14 14.00 2400.00 466 1026 5.000 100000.000 0.000 0.703
15 15.00 2400.00 475 1012 5.000 100000.000 0.000 0.703
16 16.00 2400.00 496 1105 5.000 100000.000 0.000 0.703
17 17.00 2400.00 486 1013 5.000 100000.000 0.000 0.703
18 18.00 2400.00 503 1108 5.000 100000.000 0.000 0.703
19 19.00 2400.00 543 1056 5.000 100000.000 0.000 0.703
20 20.00 2400.00 522 1063 5.000 100000.000 0.000 0.703
21 21.00 2400.00 475 1076 5.000 100000.000 0.000 0.703
22 22.00 2400.00 533 1044 5.000 100000.000 0.000 0.703
23 23.00 2400.00 553 1073 5.000 100000.000 0.000 0.703
24 24.00 2400.00 528 1122 5.000 100000.000 0.000 0.703
25 25.00 2400.00 505 1062 5.000 100000.000 0.000 0.703
26 26.00 2400.00 554 1148 5.000 100000.000 0.000 0.703
27 27.00 2400.00 499 996 5.000 100000.000 0.000 0.703
28 28.00 2400.00 544 1061 5.000 100000.000 0.000 0.703
29 29.00 2400.00 510 1028 5.000 100000.000 0.000 0.703
30 30.00 2400.00 494 1071 5.000 100000.000 0.000 0.703
31 31.00 2400.00 509 1045 5.000 100000.000 0.000 0.703
32 32.00 2400.00 517 1130 5.000 100000.000 0.000 0.703
33 33.00 2400.00 513 1098 5.000 100000.000 0.000 0.703
34 34.00 2400.00 541 1129 5.000 100000.000 0.000 0.703
35 35.00 2400.00 506 1078 5.000 100000.000 0.000 0.703
36 36.00 2400.00 517 1081 5.000 100000.000 0.000 0.703
37 37.00 2400.00 506 1073 5.000 100000.000 0.000 0.703
38 38.00 2400.00 538 1102 5.000 100000.000 0.000 0.703
39 39.00 2400.00 481 1026 5.000 100000.000 0.000 0.703
40 40.00 2400.00 543 1147 5.000 100000.000 0.000 0.703
41 41.00 2400.00 457 1064 5.000 100000.000 0.000 0.703
42 42.00 2400.00 527 1150 5.000 100000.000 0.000 0.703
43 43.00 2400.00 488 1077 5.000 100000.000 0.000 0.703
44 44.00 2400.00 479 1111 5.000 100000.000 0.000 0.703
45 45.00 2400.00 495 1096 5.000 100000.000 0.000 0.703
46 46.00 2400.00 511 1015 5.000 100000.000 0.000 0.703
47 47.00 2400.00 485 1029 5.000 100000.000 0.000 0.703
48 48.00 2400.00 538 1108 5.000 100000.000 0.000 0.703
49 49.00 2400.00 493 1021 5.000 100000.000 0.000 0.703
50 50.00 2400.00 482 1152 5.000 100000.000 0.000 0.703
51 51.00 2400.00 471 1028 5.000 100000.000 0.000 0.703
52 52.00 2400.00 483 1098 5.000 100000.000 0.000 0.703
53 53.00 2400.00 523 1043 5.000 100000.000 0.000 0.703
54 54.00 2400.00 532 1036 5.000 100000.000 0.000 0.703
55 55.00 2400.00 505 1112 5.000 100000.000 0.000 0.703
56 56.00 2400.00 508 1104 5.000 100000.000 0.000 0.703
57 57.00 2400.00 505 964 5.000 100000.000 0.000 0.703
58 58.00 2400.00 490 1097 5.000 100000.000 0.000 0.703
59 59.00 2400.00 492 1038 5.000 100000.000 0.000 0.703
60 60.00 2400.00 480 1114 5.000 100000.000 0.000 0.703
61 61.00 2400.00 521 1048 5.000 100000.000 0.000 0.703
62 62.00 2400.00 526 1111 5.000 100000.000 0.000 0.703
63 63.00 2400.00 478 1049 5.000 100000.000 0.000 0.703
64 64.00 2400.00 551 1094 5.000 100000.000 0.000 0.703
65 65.00 2400.00 526 1048 5.000 100000.000 0.000 0.703
66 66.00 2400.00 500 1089 5.000 100000.000 0.000 0.703
67 67.00 2400.00 487 1031 5.000 100000.000 0.000 0.703
68 68.00 2400.00 516 1107 5.000 100000.000 0.000 0.703
69 69.00 2400.00 511 1024 5.000 100000.000 0.000 0.703
70 70.00 2400.00 537 1111 5.000 100000.000 0.000 0.703
71 71.00 2400.00 478 1004 5.000 100000.000 0.000 0.703
72 72.00 2400.00 502 1100 5.000 100000.000 0.000 0.703
73 73.00 2400.00 498 1016 5.000 100000.000 0.000 0.703
74 74.00 2400.00 509 1167 5.000 100000.000 0.000 0.703
75 75.00 2400.00 511 1023 5.000 100000.000 0.000 0.703
76 76.00 2400.00 529 1064 5.000 100000.000 0.000 0.703
77 77.00 2400.00 469 1013 5.000 100000.000 0.000 0.703
78 78.00 2400.00 538 1107 5.000 100000.000 0.000 0.703
79 79.00 2400.00 451 1046 5.000 100000.000 0.000 0.703
80 80.00 2400.00 519 1107 5.000 100000.000 0.000 0.703
81 81.00 2400.00 507 1043 5.000 100000.000 0.000 0.703
82 82.00 2400.00 544 1093 5.000 100000.000 0.000 0.703
83 83.00 2400.00 507 1069 5.000 100000.000 0.000 0.703
84 84.00 2400.00 508 1051 5.000 100000.000 0.000 0.703
85 85.00 2400.00 462 1039 5.000 100000.000 0.000 0.703
86 86.00 2400.00 516 1128 5.000 100000.000 0.000 0.703
87 87.00 2400.00 506 1062 5.000 100000.000 0.000 0.703
88 88.00 2400.00 527 1090 5.000 100000.000 0.000 0.703
89 89.00 2400.00 468 1049 5.000 100000.000 0.000 0.703
90 90.00 2400.00 511 1122 5.000 100000.000 0.000 0.703
91 91.00 2400.00 475 1070 5.000 100000.000 0.000 0.703
92 92.00 2400.00 508 1114 5.000 100000.000 0.000 0.703
93 93.00 2400.00 498 1104 5.000 100000.000 0.000 0.703
94 94.00 2400.00 524 1134 5.000 100000.000 0.000 0.703
95 95.00 2400.00 525 1006 5.000 100000.000 0.000 0.703
96 96.00 2400.00 552 1109 5.000 100000.000 0.000 0.703
97 97.00 2400.00 466 1018 5.000 100000.000 0.000 0.703
98 98.00 2400.00 531 1174 5.000 100000.000 0.000 0.703
99 99.00 2400.00 491 1023 5.000 100000.000 0.000 0.703
100 100.00 2400.00 559 1055 5.000 100000.000 0.000 0.703
101 101.00 2400.00 494 945 5.000 100000.000 0.000 0.703
102 102.00 2400.00 487 1062 5.000 100000.000 0.000 0.703
