# BinNR microsec tot-time (s)  O-Beam H-beam AUX Ampl(V) f(Hz) phase(deg) chi(pos)
0 0.00 1200.00 294 595 539 0.000 2.102 3000.000 0.077
1 25.00 1200.00 199 711 310 0.000 2.102 3000.000 0.077
2 50.00 1200.00 156 998 133 0.000 2.102 3000.000 0.077
3 75.00 1200.00 198 1247 85 0.000 2.102 3000.000 0.077
4 100.00 1200.00 233 1323 96 0.000 2.102 3000.000 0.077
5 125.00 1200.00 271 1335 180 0.000 2.102 3000.000 0.077
6 150.00 1200.00 226 1183 359 0.000 2.102 3000.000 0.077
7 175.00 1200.00 101 821 603 0.000 2.102 3000.000 0.077
8 200.00 1200.00 56 602 554 0.000 2.102 3000.000 0.077
9 225.00 1200.00 52 734 402 0.000 2.102 3000.000 0.077
10 250.00 1200.00 60 945 298 0.000 2.102 3000.000 0.077
11 275.00 1200.00 172 959 331 0.000 2.102 3000.000 0.077
12 300.00 1200.00 253 898 499 0.000 2.102 3000.000 0.077
13 325.00 1200.00 289 652 580 0.000 2.102 3000.000 0.077
14 350.00 1200.00 217 600 427 0.000 2.102 3000.000 0.077
15 375.00 1200.00 171 957 181 0.000 2.102 3000.000 0.077
16 400.00 1200.00 139 1210 103 0.000 2.102 3000.000 0.077
17 425.00 1200.00 205 1362 102 0.000 2.102 3000.000 0.077
18 450.00 1200.00 291 1296 124 0.000 2.102 3000.000 0.077
19 475.00 1200.00 254 1214 260 0.000 2.102 3000.000 0.077
20 500.00 1200.00 157 986 529 0.000 2.102 3000.000 0.077
21 525.00 1200.00 59 617 563 0.000 2.102 3000.000 0.077
22 550.00 1200.00 61 642 399 0.000 2.102 3000.000 0.077
23 575.00 1200.00 73 895 316 0.000 2.102 3000.000 0.077
24 600.00 1200.00 134 996 326 0.000 2.102 3000.000 0.077
25 625.00 1200.00 225 970 498 0.000 2.102 3000.000 0.077
26 650.00 1200.00 284 753 544 0.000 2.102 3000.000 0.077
27 675.00 1200.00 213 562 450 0.000 2.102 3000.000 0.077
28 700.00 1200.00 170 714 268 0.000 2.102 3000.000 0.077
29 725.00 1200.00 153 1066 120 0.000 2.102 3000.000 0.077
30 750.00 1200.00 200 1250 93 0.000 2.102 3000.000 0.077
31 775.00 1200.00 269 1380 119 0.000 2.102 3000.000 0.077
32 800.00 1200.00 283 1279 219 0.000 2.102 3000.000 0.077
33 825.00 1200.00 204 1071 397 0.000 2.102 3000.000 0.077
34 850.00 1200.00 88 675 526 0.000 2.102 3000.000 0.077
35 875.00 1200.00 61 589 510 0.000 2.102 3000.000 0.077
36 900.00 1200.00 59 825 343 0.000 2.102 3000.000 0.077
37 925.00 1200.00 103 986 357 0.000 2.102 3000.000 0.077
38 950.00 1200.00 180 1014 432 0.000 2.102 3000.000 0.077
39 975.00 1200.00 293 851 566 0.000 2.102 3000.000 0.077
