# BinNR microsec tot-time (s)  O-Beam H-beam AUX Ampl1(V) f1(Hz) phase1(deg) Ampl1(V) f1(Hz) phase1(deg) chi(pos)
0 0.00 2000.00 33 551 60 0.425 2000.000 0.000 0.425 3000.000 0.000 -0.505
1 16.67 2000.00 30 532 61 0.425 2000.000 0.000 0.425 3000.000 0.000 -0.505
2 33.33 2000.00 34 520 48 0.425 2000.000 0.000 0.425 3000.000 0.000 -0.505
3 50.00 2000.00 24 626 53 0.425 2000.000 0.000 0.425 3000.000 0.000 -0.505
4 66.67 2000.00 32 573 68 0.425 2000.000 0.000 0.425 3000.000 0.000 -0.505
5 83.33 2000.00 23 579 55 0.425 2000.000 0.000 0.425 3000.000 0.000 -0.505
6 100.00 2000.00 32 572 66 0.425 2000.000 0.000 0.425 3000.000 0.000 -0.505
7 116.67 2000.00 35 591 47 0.425 2000.000 0.000 0.425 3000.000 0.000 -0.505
8 133.33 2000.00 21 510 62 0.425 2000.000 0.000 0.425 3000.000 0.000 -0.505
9 150.00 2000.00 21 568 55 0.425 2000.000 0.000 0.425 3000.000 0.000 -0.505
10 166.67 2000.00 28 578 66 0.425 2000.000 0.000 0.425 3000.000 0.000 -0.505
11 183.33 2000.00 23 555 47 0.425 2000.000 0.000 0.425 3000.000 0.000 -0.505
12 200.00 2000.00 20 571 53 0.425 2000.000 0.000 0.425 3000.000 0.000 -0.505
13 216.67 2000.00 24 558 58 0.425 2000.000 0.000 0.425 3000.000 0.000 -0.505
14 233.33 2000.00 25 552 52 0.425 2000.000 0.000 0.425 3000.000 0.000 -0.505
15 250.00 2000.00 29 590 53 0.425 2000.000 0.000 0.425 3000.000 0.000 -0.505
16 266.67 2000.00 27 514 54 0.425 2000.000 0.000 0.425 3000.000 0.000 -0.505
17 283.33 2000.00 25 499 63 0.425 2000.000 0.000 0.425 3000.000 0.000 -0.505
18 300.00 2000.00 25 555 68 0.425 2000.000 0.000 0.425 3000.000 0.000 -0.505
19 316.67 2000.00 24 560 63 0.425 2000.000 0.000 0.425 3000.000 0.000 -0.505
20 333.33 2000.00 20 575 62 0.425 2000.000 0.000 0.425 3000.000 0.000 -0.505
21 350.00 2000.00 34 488 64 0.425 2000.000 0.000 0.425 3000.000 0.000 -0.505
22 366.67 2000.00 32 586 57 0.425 2000.000 0.000 0.425 3000.000 0.000 -0.505
23 383.33 2000.00 29 561 55 0.425 2000.000 0.000 0.425 3000.000 0.000 -0.505
24 400.00 2000.00 33 546 65 0.425 2000.000 0.000 0.425 3000.000 0.000 -0.505
25 416.67 2000.00 43 583 58 0.425 2000.000 0.000 0.425 3000.000 0.000 -0.505
26 433.33 2000.00 33 547 50 0.425 2000.000 0.000 0.425 3000.000 0.000 -0.505
27 450.00 2000.00 32 535 40 0.425 2000.000 0.000 0.425 3000.000 0.000 -0.505
28 466.67 2000.00 16 554 56 0.425 2000.000 0.000 0.425 3000.000 0.000 -0.505
29 483.33 2000.00 35 590 65 0.425 2000.000 0.000 0.425 3000.000 0.000 -0.505
30 500.00 2000.00 24 530 51 0.425 2000.000 0.000 0.425 3000.000 0.000 -0.505
31 516.67 2000.00 20 497 45 0.425 2000.000 0.000 0.425 3000.000 0.000 -0.505
32 533.33 2000.00 22 531 44 0.425 2000.000 0.000 0.425 3000.000 0.000 -0.505
33 550.00 2000.00 22 525 44 0.425 2000.000 0.000 0.425 3000.000 0.000 -0.505
34 566.67 2000.00 22 530 51 0.425 2000.000 0.000 0.425 3000.000 0.000 -0.505
35 583.33 2000.00 25 579 52 0.425 2000.000 0.000 0.425 3000.000 0.000 -0.505
36 600.00 2000.00 23 494 67 0.425 2000.000 0.000 0.425 3000.000 0.000 -0.505
37 616.67 2000.00 17 537 47 0.425 2000.000 0.000 0.425 3000.000 0.000 -0.505
38 633.33 2000.00 20 549 82 0.425 2000.000 0.000 0.425 3000.000 0.000 -0.505
39 650.00 2000.00 21 567 84 0.425 2000.000 0.000 0.425 3000.000 0.000 -0.505
40 666.67 2000.00 27 557 57 0.425 2000.000 0.000 0.425 3000.000 0.000 -0.505
41 683.33 2000.00 23 574 67 0.425 2000.000 0.000 0.425 3000.000 0.000 -0.505
42 700.00 2000.00 25 588 62 0.425 2000.000 0.000 0.425 3000.000 0.000 -0.505
43 716.67 2000.00 26 581 52 0.425 2000.000 0.000 0.425 3000.000 0.000 -0.505
44 733.33 2000.00 22 581 72 0.425 2000.000 0.000 0.425 3000.000 0.000 -0.505
45 750.00 2000.00 23 554 57 0.425 2000.000 0.000 0.425 3000.000 0.000 -0.505
46 766.67 2000.00 30 550 67 0.425 2000.000 0.000 0.425 3000.000 0.000 -0.505
47 783.33 2000.00 22 586 60 0.425 2000.000 0.000 0.425 3000.000 0.000 -0.505
48 800.00 2000.00 28 526 54 0.425 2000.000 0.000 0.425 3000.000 0.000 -0.505
49 816.67 2000.00 25 561 44 0.425 2000.000 0.000 0.425 3000.000 0.000 -0.505
50 833.34 2000.00 23 514 53 0.425 2000.000 0.000 0.425 3000.000 0.000 -0.505
51 850.00 2000.00 24 512 56 0.425 2000.000 0.000 0.425 3000.000 0.000 -0.505
52 866.67 2000.00 23 546 55 0.425 2000.000 0.000 0.425 3000.000 0.000 -0.505
53 883.34 2000.00 24 523 42 0.425 2000.000 0.000 0.425 3000.000 0.000 -0.505
54 900.00 2000.00 22 567 56 0.425 2000.000 0.000 0.425 3000.000 0.000 -0.505
55 916.67 2000.00 26 549 49 0.425 2000.000 0.000 0.425 3000.000 0.000 -0.505
56 933.34 2000.00 30 530 51 0.425 2000.000 0.000 0.425 3000.000 0.000 -0.505
57 950.00 2000.00 32 563 61 0.425 2000.000 0.000 0.425 3000.000 0.000 -0.505
58 966.67 2000.00 22 523 49 0.425 2000.000 0.000 0.425 3000.000 0.000 -0.505
59 983.34 2000.00 31 553 46 0.425 2000.000 0.000 0.425 3000.000 0.000 -0.505
60 1000.00 2000.00 34 549 57 0.425 2000.000 0.000 0.425 3000.000 0.000 -0.505
61 1016.67 2000.00 33 572 65 0.425 2000.000 0.000 0.425 3000.000 0.000 -0.505
62 1033.34 2000.00 33 522 65 0.425 2000.000 0.000 0.425 3000.000 0.000 -0.505
63 1050.00 2000.00 24 555 64 0.425 2000.000 0.000 0.425 3000.000 0.000 -0.505
64 1066.67 2000.00 22 519 50 0.425 2000.000 0.000 0.425 3000.000 0.000 -0.505
65 1083.34 2000.00 29 568 58 0.425 2000.000 0.000 0.425 3000.000 0.000 -0.505
66 1100.00 2000.00 30 595 68 0.425 2000.000 0.000 0.425 3000.000 0.000 -0.505
67 1116.67 2000.00 36 569 53 0.425 2000.000 0.000 0.425 3000.000 0.000 -0.505
68 1133.34 2000.00 27 586 47 0.425 2000.000 0.000 0.425 3000.000 0.000 -0.505
69 1150.00 2000.00 23 550 56 0.425 2000.000 0.000 0.425 3000.000 0.000 -0.505
70 1166.67 2000.00 20 587 68 0.425 2000.000 0.000 0.425 3000.000 0.000 -0.505
71 1183.34 2000.00 20 542 69 0.425 2000.000 0.000 0.425 3000.000 0.000 -0.505
72 1200.00 2000.00 25 584 57 0.425 2000.000 0.000 0.425 3000.000 0.000 -0.505
73 1216.67 2000.00 23 568 48 0.425 2000.000 0.000 0.425 3000.000 0.000 -0.505
74 1233.34 2000.00 24 572 50 0.425 2000.000 0.000 0.425 3000.000 0.000 -0.505
75 1250.00 2000.00 22 560 69 0.425 2000.000 0.000 0.425 3000.000 0.000 -0.505
76 1266.67 2000.00 20 542 52 0.425 2000.000 0.000 0.425 3000.000 0.000 -0.505
77 1283.34 2000.00 28 557 74 0.425 2000.000 0.000 0.425 3000.000 0.000 -0.505
78 1300.00 2000.00 18 520 60 0.425 2000.000 0.000 0.425 3000.000 0.000 -0.505
79 1316.67 2000.00 23 540 56 0.425 2000.000 0.000 0.425 3000.000 0.000 -0.505
80 1333.34 2000.00 23 541 67 0.425 2000.000 0.000 0.425 3000.000 0.000 -0.505
81 1350.00 2000.00 34 525 62 0.425 2000.000 0.000 0.425 3000.000 0.000 -0.505
82 1366.67 2000.00 26 531 54 0.425 2000.000 0.000 0.425 3000.000 0.000 -0.505
83 1383.34 2000.00 30 533 74 0.425 2000.000 0.000 0.425 3000.000 0.000 -0.505
84 1400.00 2000.00 34 569 46 0.425 2000.000 0.000 0.425 3000.000 0.000 -0.505
85 1416.67 2000.00 27 540 58 0.425 2000.000 0.000 0.425 3000.000 0.000 -0.505
86 1433.34 2000.00 29 524 53 0.425 2000.000 0.000 0.425 3000.000 0.000 -0.505
87 1450.00 2000.00 30 531 41 0.425 2000.000 0.000 0.425 3000.000 0.000 -0.505
88 1466.67 2000.00 25 542 53 0.425 2000.000 0.000 0.425 3000.000 0.000 -0.505
89 1483.34 2000.00 27 561 53 0.425 2000.000 0.000 0.425 3000.000 0.000 -0.505
90 1500.00 2000.00 23 571 49 0.425 2000.000 0.000 0.425 3000.000 0.000 -0.505
91 1516.67 2000.00 26 523 56 0.425 2000.000 0.000 0.425 3000.000 0.000 -0.505
92 1533.34 2000.00 26 555 69 0.425 2000.000 0.000 0.425 3000.000 0.000 -0.505
93 1550.00 2000.00 22 495 67 0.425 2000.000 0.000 0.425 3000.000 0.000 -0.505
94 1566.67 2000.00 22 554 46 0.425 2000.000 0.000 0.425 3000.000 0.000 -0.505
95 1583.34 2000.00 27 560 42 0.425 2000.000 0.000 0.425 3000.000 0.000 -0.505
96 1600.00 2000.00 21 560 61 0.425 2000.000 0.000 0.425 3000.000 0.000 -0.505
97 1616.67 2000.00 19 582 49 0.425 2000.000 0.000 0.425 3000.000 0.000 -0.505
98 1633.34 2000.00 21 578 72 0.425 2000.000 0.000 0.425 3000.000 0.000 -0.505
99 1650.00 2000.00 24 571 74 0.425 2000.000 0.000 0.425 3000.000 0.000 -0.505
100 1666.67 2000.00 28 555 76 0.425 2000.000 0.000 0.425 3000.000 0.000 -0.505
101 1683.34 2000.00 29 570 82 0.425 2000.000 0.000 0.425 3000.000 0.000 -0.505
102 1700.00 2000.00 33 566 64 0.425 2000.000 0.000 0.425 3000.000 0.000 -0.505
103 1716.67 2000.00 25 543 58 0.425 2000.000 0.000 0.425 3000.000 0.000 -0.505
104 1733.34 2000.00 24 545 64 0.425 2000.000 0.000 0.425 3000.000 0.000 -0.505
105 1750.00 2000.00 27 553 81 0.425 2000.000 0.000 0.425 3000.000 0.000 -0.505
106 1766.67 2000.00 33 543 54 0.425 2000.000 0.000 0.425 3000.000 0.000 -0.505
107 1783.34 2000.00 19 579 57 0.425 2000.000 0.000 0.425 3000.000 0.000 -0.505
108 1800.00 2000.00 25 568 48 0.425 2000.000 0.000 0.425 3000.000 0.000 -0.505
109 1816.67 2000.00 23 601 59 0.425 2000.000 0.000 0.425 3000.000 0.000 -0.505
110 1833.34 2000.00 25 601 57 0.425 2000.000 0.000 0.425 3000.000 0.000 -0.505
111 1850.00 2000.00 27 517 65 0.425 2000.000 0.000 0.425 3000.000 0.000 -0.505
112 1866.67 2000.00 17 539 50 0.425 2000.000 0.000 0.425 3000.000 0.000 -0.505
113 1883.34 2000.00 40 538 50 0.425 2000.000 0.000 0.425 3000.000 0.000 -0.505
114 1900.00 2000.00 25 511 38 0.425 2000.000 0.000 0.425 3000.000 0.000 -0.505
115 1916.67 2000.00 21 511 55 0.425 2000.000 0.000 0.425 3000.000 0.000 -0.505
116 1933.34 2000.00 29 535 48 0.425 2000.000 0.000 0.425 3000.000 0.000 -0.505
117 1950.00 2000.00 30 560 48 0.425 2000.000 0.000 0.425 3000.000 0.000 -0.505
118 1966.67 2000.00 33 494 55 0.425 2000.000 0.000 0.425 3000.000 0.000 -0.505
119 1983.34 2000.00 32 539 66 0.425 2000.000 0.000 0.425 3000.000 0.000 -0.505
