# BinNR microsec tot-time (s)  O-Beam H-beam AUX Ampl1(V) f1(Hz) phase1(deg) Ampl1(V) f1(Hz) phase1(deg) chi(pos)
0 0.00 2000.00 27 513 84 0.425 2000.000 0.000 0.425 3000.000 0.000 -0.088
1 16.67 2000.00 31 517 70 0.425 2000.000 0.000 0.425 3000.000 0.000 -0.088
2 33.33 2000.00 37 530 72 0.425 2000.000 0.000 0.425 3000.000 0.000 -0.088
3 50.00 2000.00 33 492 73 0.425 2000.000 0.000 0.425 3000.000 0.000 -0.088
4 66.67 2000.00 26 504 74 0.425 2000.000 0.000 0.425 3000.000 0.000 -0.088
5 83.33 2000.00 19 493 70 0.425 2000.000 0.000 0.425 3000.000 0.000 -0.088
6 100.00 2000.00 32 495 70 0.425 2000.000 0.000 0.425 3000.000 0.000 -0.088
7 116.67 2000.00 31 467 82 0.425 2000.000 0.000 0.425 3000.000 0.000 -0.088
8 133.33 2000.00 43 492 91 0.425 2000.000 0.000 0.425 3000.000 0.000 -0.088
9 150.00 2000.00 35 462 98 0.425 2000.000 0.000 0.425 3000.000 0.000 -0.088
10 166.67 2000.00 36 485 72 0.425 2000.000 0.000 0.425 3000.000 0.000 -0.088
11 183.33 2000.00 43 521 82 0.425 2000.000 0.000 0.425 3000.000 0.000 -0.088
12 200.00 2000.00 32 497 78 0.425 2000.000 0.000 0.425 3000.000 0.000 -0.088
13 216.67 2000.00 36 553 85 0.425 2000.000 0.000 0.425 3000.000 0.000 -0.088
14 233.33 2000.00 32 492 85 0.425 2000.000 0.000 0.425 3000.000 0.000 -0.088
15 250.00 2000.00 38 532 72 0.425 2000.000 0.000 0.425 3000.000 0.000 -0.088
16 266.67 2000.00 33 516 71 0.425 2000.000 0.000 0.425 3000.000 0.000 -0.088
17 283.33 2000.00 25 529 83 0.425 2000.000 0.000 0.425 3000.000 0.000 -0.088
18 300.00 2000.00 33 517 64 0.425 2000.000 0.000 0.425 3000.000 0.000 -0.088
19 316.67 2000.00 40 547 61 0.425 2000.000 0.000 0.425 3000.000 0.000 -0.088
20 333.33 2000.00 28 538 70 0.425 2000.000 0.000 0.425 3000.000 0.000 -0.088
21 350.00 2000.00 28 487 64 0.425 2000.000 0.000 0.425 3000.000 0.000 -0.088
22 366.67 2000.00 29 520 62 0.425 2000.000 0.000 0.425 3000.000 0.000 -0.088
23 383.33 2000.00 24 509 85 0.425 2000.000 0.000 0.425 3000.000 0.000 -0.088
24 400.00 2000.00 24 511 83 0.425 2000.000 0.000 0.425 3000.000 0.000 -0.088
25 416.67 2000.00 17 517 93 0.425 2000.000 0.000 0.425 3000.000 0.000 -0.088
26 433.33 2000.00 29 484 97 0.425 2000.000 0.000 0.425 3000.000 0.000 -0.088
27 450.00 2000.00 19 505 97 0.425 2000.000 0.000 0.425 3000.000 0.000 -0.088
28 466.67 2000.00 29 551 89 0.425 2000.000 0.000 0.425 3000.000 0.000 -0.088
29 483.33 2000.00 34 551 103 0.425 2000.000 0.000 0.425 3000.000 0.000 -0.088
30 500.00 2000.00 26 521 106 0.425 2000.000 0.000 0.425 3000.000 0.000 -0.088
31 516.67 2000.00 27 531 107 0.425 2000.000 0.000 0.425 3000.000 0.000 -0.088
32 533.33 2000.00 31 520 121 0.425 2000.000 0.000 0.425 3000.000 0.000 -0.088
33 550.00 2000.00 36 516 98 0.425 2000.000 0.000 0.425 3000.000 0.000 -0.088
34 566.67 2000.00 34 564 67 0.425 2000.000 0.000 0.425 3000.000 0.000 -0.088
35 583.33 2000.00 43 522 83 0.425 2000.000 0.000 0.425 3000.000 0.000 -0.088
36 600.00 2000.00 28 533 79 0.425 2000.000 0.000 0.425 3000.000 0.000 -0.088
37 616.67 2000.00 24 463 67 0.425 2000.000 0.000 0.425 3000.000 0.000 -0.088
38 633.33 2000.00 39 521 63 0.425 2000.000 0.000 0.425 3000.000 0.000 -0.088
39 650.00 2000.00 31 542 65 0.425 2000.000 0.000 0.425 3000.000 0.000 -0.088
40 666.67 2000.00 43 478 63 0.425 2000.000 0.000 0.425 3000.000 0.000 -0.088
41 683.33 2000.00 25 463 52 0.425 2000.000 0.000 0.425 3000.000 0.000 -0.088
42 700.00 2000.00 33 467 57 0.425 2000.000 0.000 0.425 3000.000 0.000 -0.088
43 716.67 2000.00 31 468 51 0.425 2000.000 0.000 0.425 3000.000 0.000 -0.088
44 733.33 2000.00 37 485 53 0.425 2000.000 0.000 0.425 3000.000 0.000 -0.088
45 750.00 2000.00 24 532 82 0.425 2000.000 0.000 0.425 3000.000 0.000 -0.088
46 766.67 2000.00 26 514 88 0.425 2000.000 0.000 0.425 3000.000 0.000 -0.088
47 783.33 2000.00 35 484 88 0.425 2000.000 0.000 0.425 3000.000 0.000 -0.088
48 800.00 2000.00 24 532 94 0.425 2000.000 0.000 0.425 3000.000 0.000 -0.088
49 816.67 2000.00 31 537 88 0.425 2000.000 0.000 0.425 3000.000 0.000 -0.088
50 833.34 2000.00 35 544 76 0.425 2000.000 0.000 0.425 3000.000 0.000 -0.088
51 850.00 2000.00 28 579 78 0.425 2000.000 0.000 0.425 3000.000 0.000 -0.088
52 866.67 2000.00 36 534 91 0.425 2000.000 0.000 0.425 3000.000 0.000 -0.088
53 883.34 2000.00 28 522 100 0.425 2000.000 0.000 0.425 3000.000 0.000 -0.088
54 900.00 2000.00 33 523 96 0.425 2000.000 0.000 0.425 3000.000 0.000 -0.088
55 916.67 2000.00 40 529 91 0.425 2000.000 0.000 0.425 3000.000 0.000 -0.088
56 933.34 2000.00 36 531 94 0.425 2000.000 0.000 0.425 3000.000 0.000 -0.088
57 950.00 2000.00 29 518 95 0.425 2000.000 0.000 0.425 3000.000 0.000 -0.088
58 966.67 2000.00 30 510 99 0.425 2000.000 0.000 0.425 3000.000 0.000 -0.088
59 983.34 2000.00 31 557 93 0.425 2000.000 0.000 0.425 3000.000 0.000 -0.088
60 1000.00 2000.00 30 542 74 0.425 2000.000 0.000 0.425 3000.000 0.000 -0.088
61 1016.67 2000.00 27 527 74 0.425 2000.000 0.000 0.425 3000.000 0.000 -0.088
62 1033.34 2000.00 25 547 64 0.425 2000.000 0.000 0.425 3000.000 0.000 -0.088
63 1050.00 2000.00 31 480 68 0.425 2000.000 0.000 0.425 3000.000 0.000 -0.088
64 1066.67 2000.00 27 543 74 0.425 2000.000 0.000 0.425 3000.000 0.000 -0.088
65 1083.34 2000.00 29 459 66 0.425 2000.000 0.000 0.425 3000.000 0.000 -0.088
66 1100.00 2000.00 34 503 74 0.425 2000.000 0.000 0.425 3000.000 0.000 -0.088
67 1116.67 2000.00 35 488 78 0.425 2000.000 0.000 0.425 3000.000 0.000 -0.088
68 1133.34 2000.00 33 482 81 0.425 2000.000 0.000 0.425 3000.000 0.000 -0.088
69 1150.00 2000.00 40 478 71 0.425 2000.000 0.000 0.425 3000.000 0.000 -0.088
70 1166.67 2000.00 34 519 82 0.425 2000.000 0.000 0.425 3000.000 0.000 -0.088
71 1183.34 2000.00 40 517 99 0.425 2000.000 0.000 0.425 3000.000 0.000 -0.088
72 1200.00 2000.00 27 495 67 0.425 2000.000 0.000 0.425 3000.000 0.000 -0.088
73 1216.67 2000.00 39 598 74 0.425 2000.000 0.000 0.425 3000.000 0.000 -0.088
74 1233.34 2000.00 38 537 68 0.425 2000.000 0.000 0.425 3000.000 0.000 -0.088
75 1250.00 2000.00 31 552 81 0.425 2000.000 0.000 0.425 3000.000 0.000 -0.088
76 1266.67 2000.00 32 532 83 0.425 2000.000 0.000 0.425 3000.000 0.000 -0.088
77 1283.34 2000.00 38 535 53 0.425 2000.000 0.000 0.425 3000.000 0.000 -0.088
78 1300.00 2000.00 30 544 56 0.425 2000.000 0.000 0.425 3000.000 0.000 -0.088
79 1316.67 2000.00 32 545 69 0.425 2000.000 0.000 0.425 3000.000 0.000 -0.088
80 1333.34 2000.00 27 545 63 0.425 2000.000 0.000 0.425 3000.000 0.000 -0.088
81 1350.00 2000.00 35 578 67 0.425 2000.000 0.000 0.425 3000.000 0.000 -0.088
82 1366.67 2000.00 26 481 87 0.425 2000.000 0.000 0.425 3000.000 0.000 -0.088
83 1383.34 2000.00 20 511 81 0.425 2000.000 0.000 0.425 3000.000 0.000 -0.088
84 1400.00 2000.00 29 512 83 0.425 2000.000 0.000 0.425 3000.000 0.000 -0.088
85 1416.67 2000.00 23 554 91 0.425 2000.000 0.000 0.425 3000.000 0.000 -0.088
86 1433.34 2000.00 25 512 87 0.425 2000.000 0.000 0.425 3000.000 0.000 -0.088
87 1450.00 2000.00 31 545 91 0.425 2000.000 0.000 0.425 3000.000 0.000 -0.088
88 1466.67 2000.00 26 513 90 0.425 2000.000 0.000 0.425 3000.000 0.000 -0.088
89 1483.34 2000.00 33 507 110 0.425 2000.000 0.000 0.425 3000.000 0.000 -0.088
90 1500.00 2000.00 29 501 93 0.425 2000.000 0.000 0.425 3000.000 0.000 -0.088
91 1516.67 2000.00 28 543 100 0.425 2000.000 0.000 0.425 3000.000 0.000 -0.088
92 1533.34 2000.00 34 516 94 0.425 2000.000 0.000 0.425 3000.000 0.000 -0.088
93 1550.00 2000.00 35 550 84 0.425 2000.000 0.000 0.425 3000.000 0.000 -0.088
94 1566.67 2000.00 34 562 86 0.425 2000.000 0.000 0.425 3000.000 0.000 -0.088
95 1583.34 2000.00 45 523 75 0.425 2000.000 0.000 0.425 3000.000 0.000 -0.088
96 1600.00 2000.00 38 512 67 0.425 2000.000 0.000 0.425 3000.000 0.000 -0.088
97 1616.67 2000.00 39 501 67 0.425 2000.000 0.000 0.425 3000.000 0.000 -0.088
98 1633.34 2000.00 37 515 59 0.425 2000.000 0.000 0.425 3000.000 0.000 -0.088
99 1650.00 2000.00 30 506 51 0.425 2000.000 0.000 0.425 3000.000 0.000 -0.088
100 1666.67 2000.00 35 499 56 0.425 2000.000 0.000 0.425 3000.000 0.000 -0.088
101 1683.34 2000.00 39 497 62 0.425 2000.000 0.000 0.425 3000.000 0.000 -0.088
102 1700.00 2000.00 36 472 57 0.425 2000.000 0.000 0.425 3000.000 0.000 -0.088
103 1716.67 2000.00 22 463 62 0.425 2000.000 0.000 0.425 3000.000 0.000 -0.088
104 1733.34 2000.00 34 520 59 0.425 2000.000 0.000 0.425 3000.000 0.000 -0.088
105 1750.00 2000.00 34 474 68 0.425 2000.000 0.000 0.425 3000.000 0.000 -0.088
106 1766.67 2000.00 30 516 74 0.425 2000.000 0.000 0.425 3000.000 0.000 -0.088
107 1783.34 2000.00 30 517 87 0.425 2000.000 0.000 0.425 3000.000 0.000 -0.088
108 1800.00 2000.00 35 503 86 0.425 2000.000 0.000 0.425 3000.000 0.000 -0.088
109 1816.67 2000.00 26 539 95 0.425 2000.000 0.000 0.425 3000.000 0.000 -0.088
110 1833.34 2000.00 30 526 94 0.425 2000.000 0.000 0.425 3000.000 0.000 -0.088
111 1850.00 2000.00 30 548 101 0.425 2000.000 0.000 0.425 3000.000 0.000 -0.088
112 1866.67 2000.00 38 553 78 0.425 2000.000 0.000 0.425 3000.000 0.000 -0.088
113 1883.34 2000.00 31 514 117 0.425 2000.000 0.000 0.425 3000.000 0.000 -0.088
114 1900.00 2000.00 22 546 104 0.425 2000.000 0.000 0.425 3000.000 0.000 -0.088
115 1916.67 2000.00 39 553 118 0.425 2000.000 0.000 0.425 3000.000 0.000 -0.088
116 1933.34 2000.00 33 527 122 0.425 2000.000 0.000 0.425 3000.000 0.000 -0.088
117 1950.00 2000.00 33 516 94 0.425 2000.000 0.000 0.425 3000.000 0.000 -0.088
118 1966.67 2000.00 29 508 87 0.425 2000.000 0.000 0.425 3000.000 0.000 -0.088
119 1983.34 2000.00 18 499 73 0.425 2000.000 0.000 0.425 3000.000 0.000 -0.088
