# BinNR microsec tot-time (s)  O-Beam H-beam AUX Ampl1(V) f1(Hz) phase1(deg) Ampl1(V) f1(Hz) phase1(deg) chi(pos)
0 0.00 2000.00 32 570 64 0.425 2000.000 0.000 0.425 3000.000 0.000 1.516
1 16.67 2000.00 41 558 71 0.425 2000.000 0.000 0.425 3000.000 0.000 1.516
2 33.33 2000.00 31 518 62 0.425 2000.000 0.000 0.425 3000.000 0.000 1.516
3 50.00 2000.00 19 562 66 0.425 2000.000 0.000 0.425 3000.000 0.000 1.516
4 66.67 2000.00 31 554 71 0.425 2000.000 0.000 0.425 3000.000 0.000 1.516
5 83.33 2000.00 25 544 67 0.425 2000.000 0.000 0.425 3000.000 0.000 1.516
6 100.00 2000.00 22 563 55 0.425 2000.000 0.000 0.425 3000.000 0.000 1.516
7 116.67 2000.00 25 607 57 0.425 2000.000 0.000 0.425 3000.000 0.000 1.516
8 133.33 2000.00 25 566 66 0.425 2000.000 0.000 0.425 3000.000 0.000 1.516
9 150.00 2000.00 33 568 61 0.425 2000.000 0.000 0.425 3000.000 0.000 1.516
10 166.67 2000.00 28 567 59 0.425 2000.000 0.000 0.425 3000.000 0.000 1.516
11 183.33 2000.00 23 551 55 0.425 2000.000 0.000 0.425 3000.000 0.000 1.516
12 200.00 2000.00 22 530 46 0.425 2000.000 0.000 0.425 3000.000 0.000 1.516
13 216.67 2000.00 24 570 59 0.425 2000.000 0.000 0.425 3000.000 0.000 1.516
14 233.33 2000.00 26 563 65 0.425 2000.000 0.000 0.425 3000.000 0.000 1.516
15 250.00 2000.00 23 571 81 0.425 2000.000 0.000 0.425 3000.000 0.000 1.516
16 266.67 2000.00 23 524 58 0.425 2000.000 0.000 0.425 3000.000 0.000 1.516
17 283.33 2000.00 29 580 59 0.425 2000.000 0.000 0.425 3000.000 0.000 1.516
18 300.00 2000.00 25 539 62 0.425 2000.000 0.000 0.425 3000.000 0.000 1.516
19 316.67 2000.00 29 525 77 0.425 2000.000 0.000 0.425 3000.000 0.000 1.516
20 333.33 2000.00 32 537 78 0.425 2000.000 0.000 0.425 3000.000 0.000 1.516
21 350.00 2000.00 41 525 63 0.425 2000.000 0.000 0.425 3000.000 0.000 1.516
22 366.67 2000.00 40 537 70 0.425 2000.000 0.000 0.425 3000.000 0.000 1.516
23 383.33 2000.00 40 555 78 0.425 2000.000 0.000 0.425 3000.000 0.000 1.516
24 400.00 2000.00 42 536 68 0.425 2000.000 0.000 0.425 3000.000 0.000 1.516
25 416.67 2000.00 36 522 43 0.425 2000.000 0.000 0.425 3000.000 0.000 1.516
26 433.33 2000.00 26 549 67 0.425 2000.000 0.000 0.425 3000.000 0.000 1.516
27 450.00 2000.00 33 552 52 0.425 2000.000 0.000 0.425 3000.000 0.000 1.516
28 466.67 2000.00 37 549 51 0.425 2000.000 0.000 0.425 3000.000 0.000 1.516
29 483.33 2000.00 29 577 48 0.425 2000.000 0.000 0.425 3000.000 0.000 1.516
30 500.00 2000.00 31 556 53 0.425 2000.000 0.000 0.425 3000.000 0.000 1.516
31 516.67 2000.00 27 506 40 0.425 2000.000 0.000 0.425 3000.000 0.000 1.516
32 533.33 2000.00 24 553 55 0.425 2000.000 0.000 0.425 3000.000 0.000 1.516
33 550.00 2000.00 22 536 52 0.425 2000.000 0.000 0.425 3000.000 0.000 1.516
34 566.67 2000.00 25 547 58 0.425 2000.000 0.000 0.425 3000.000 0.000 1.516
35 583.33 2000.00 18 577 63 0.425 2000.000 0.000 0.425 3000.000 0.000 1.516
36 600.00 2000.00 22 573 48 0.425 2000.000 0.000 0.425 3000.000 0.000 1.516
37 616.67 2000.00 21 571 71 0.425 2000.000 0.000 0.425 3000.000 0.000 1.516
38 633.33 2000.00 18 541 66 0.425 2000.000 0.000 0.425 3000.000 0.000 1.516
39 650.00 2000.00 19 557 77 0.425 2000.000 0.000 0.425 3000.000 0.000 1.516
40 666.67 2000.00 34 585 81 0.425 2000.000 0.000 0.425 3000.000 0.000 1.516
41 683.33 2000.00 27 561 74 0.425 2000.000 0.000 0.425 3000.000 0.000 1.516
42 700.00 2000.00 29 596 86 0.425 2000.000 0.000 0.425 3000.000 0.000 1.516
43 716.67 2000.00 29 584 76 0.425 2000.000 0.000 0.425 3000.000 0.000 1.516
44 733.33 2000.00 35 586 74 0.425 2000.000 0.000 0.425 3000.000 0.000 1.516
45 750.00 2000.00 32 589 78 0.425 2000.000 0.000 0.425 3000.000 0.000 1.516
46 766.67 2000.00 37 589 83 0.425 2000.000 0.000 0.425 3000.000 0.000 1.516
47 783.33 2000.00 28 602 80 0.425 2000.000 0.000 0.425 3000.000 0.000 1.516
48 800.00 2000.00 25 577 62 0.425 2000.000 0.000 0.425 3000.000 0.000 1.516
49 816.67 2000.00 34 557 37 0.425 2000.000 0.000 0.425 3000.000 0.000 1.516
50 833.34 2000.00 29 542 49 0.425 2000.000 0.000 0.425 3000.000 0.000 1.516
51 850.00 2000.00 32 563 52 0.425 2000.000 0.000 0.425 3000.000 0.000 1.516
52 866.67 2000.00 22 523 54 0.425 2000.000 0.000 0.425 3000.000 0.000 1.516
53 883.34 2000.00 22 572 59 0.425 2000.000 0.000 0.425 3000.000 0.000 1.516
54 900.00 2000.00 36 545 66 0.425 2000.000 0.000 0.425 3000.000 0.000 1.516
55 916.67 2000.00 29 519 52 0.425 2000.000 0.000 0.425 3000.000 0.000 1.516
56 933.34 2000.00 25 518 44 0.425 2000.000 0.000 0.425 3000.000 0.000 1.516
57 950.00 2000.00 30 547 55 0.425 2000.000 0.000 0.425 3000.000 0.000 1.516
58 966.67 2000.00 32 534 48 0.425 2000.000 0.000 0.425 3000.000 0.000 1.516
59 983.34 2000.00 25 530 57 0.425 2000.000 0.000 0.425 3000.000 0.000 1.516
60 1000.00 2000.00 38 549 65 0.425 2000.000 0.000 0.425 3000.000 0.000 1.516
61 1016.67 2000.00 35 548 72 0.425 2000.000 0.000 0.425 3000.000 0.000 1.516
62 1033.34 2000.00 28 543 77 0.425 2000.000 0.000 0.425 3000.000 0.000 1.516
63 1050.00 2000.00 45 548 78 0.425 2000.000 0.000 0.425 3000.000 0.000 1.516
64 1066.67 2000.00 28 573 69 0.425 2000.000 0.000 0.425 3000.000 0.000 1.516
65 1083.34 2000.00 26 580 65 0.425 2000.000 0.000 0.425 3000.000 0.000 1.516
66 1100.00 2000.00 25 546 69 0.425 2000.000 0.000 0.425 3000.000 0.000 1.516
67 1116.67 2000.00 28 563 50 0.425 2000.000 0.000 0.425 3000.000 0.000 1.516
68 1133.34 2000.00 22 562 55 0.425 2000.000 0.000 0.425 3000.000 0.000 1.516
69 1150.00 2000.00 29 565 53 0.425 2000.000 0.000 0.425 3000.000 0.000 1.516
70 1166.67 2000.00 26 565 71 0.425 2000.000 0.000 0.425 3000.000 0.000 1.516
71 1183.34 2000.00 19 529 74 0.425 2000.000 0.000 0.425 3000.000 0.000 1.516
72 1200.00 2000.00 27 558 52 0.425 2000.000 0.000 0.425 3000.000 0.000 1.516
73 1216.67 2000.00 20 514 51 0.425 2000.000 0.000 0.425 3000.000 0.000 1.516
74 1233.34 2000.00 31 530 70 0.425 2000.000 0.000 0.425 3000.000 0.000 1.516
75 1250.00 2000.00 20 568 61 0.425 2000.000 0.000 0.425 3000.000 0.000 1.516
76 1266.67 2000.00 18 576 60 0.425 2000.000 0.000 0.425 3000.000 0.000 1.516
77 1283.34 2000.00 24 576 59 0.425 2000.000 0.000 0.425 3000.000 0.000 1.516
78 1300.00 2000.00 28 512 76 0.425 2000.000 0.000 0.425 3000.000 0.000 1.516
79 1316.67 2000.00 34 566 83 0.425 2000.000 0.000 0.425 3000.000 0.000 1.516
80 1333.34 2000.00 19 567 71 0.425 2000.000 0.000 0.425 3000.000 0.000 1.516
81 1350.00 2000.00 35 569 65 0.425 2000.000 0.000 0.425 3000.000 0.000 1.516
82 1366.67 2000.00 36 507 58 0.425 2000.000 0.000 0.425 3000.000 0.000 1.516
83 1383.34 2000.00 35 538 64 0.425 2000.000 0.000 0.425 3000.000 0.000 1.516
84 1400.00 2000.00 36 519 70 0.425 2000.000 0.000 0.425 3000.000 0.000 1.516
85 1416.67 2000.00 43 574 53 0.425 2000.000 0.000 0.425 3000.000 0.000 1.516
86 1433.34 2000.00 23 516 50 0.425 2000.000 0.000 0.425 3000.000 0.000 1.516
87 1450.00 2000.00 25 579 59 0.425 2000.000 0.000 0.425 3000.000 0.000 1.516
88 1466.67 2000.00 34 536 42 0.425 2000.000 0.000 0.425 3000.000 0.000 1.516
89 1483.34 2000.00 28 528 47 0.425 2000.000 0.000 0.425 3000.000 0.000 1.516
90 1500.00 2000.00 31 538 45 0.425 2000.000 0.000 0.425 3000.000 0.000 1.516
91 1516.67 2000.00 21 585 56 0.425 2000.000 0.000 0.425 3000.000 0.000 1.516
92 1533.34 2000.00 32 542 37 0.425 2000.000 0.000 0.425 3000.000 0.000 1.516
93 1550.00 2000.00 27 535 40 0.425 2000.000 0.000 0.425 3000.000 0.000 1.516
94 1566.67 2000.00 24 554 45 0.425 2000.000 0.000 0.425 3000.000 0.000 1.516
95 1583.34 2000.00 24 542 64 0.425 2000.000 0.000 0.425 3000.000 0.000 1.516
96 1600.00 2000.00 16 541 56 0.425 2000.000 0.000 0.425 3000.000 0.000 1.516
97 1616.67 2000.00 24 510 71 0.425 2000.000 0.000 0.425 3000.000 0.000 1.516
98 1633.34 2000.00 19 539 72 0.425 2000.000 0.000 0.425 3000.000 0.000 1.516
99 1650.00 2000.00 23 549 79 0.425 2000.000 0.000 0.425 3000.000 0.000 1.516
100 1666.67 2000.00 28 558 71 0.425 2000.000 0.000 0.425 3000.000 0.000 1.516
101 1683.34 2000.00 31 591 79 0.425 2000.000 0.000 0.425 3000.000 0.000 1.516
102 1700.00 2000.00 31 560 85 0.425 2000.000 0.000 0.425 3000.000 0.000 1.516
103 1716.67 2000.00 28 565 75 0.425 2000.000 0.000 0.425 3000.000 0.000 1.516
104 1733.34 2000.00 33 590 85 0.425 2000.000 0.000 0.425 3000.000 0.000 1.516
105 1750.00 2000.00 26 554 91 0.425 2000.000 0.000 0.425 3000.000 0.000 1.516
106 1766.67 2000.00 24 542 70 0.425 2000.000 0.000 0.425 3000.000 0.000 1.516
107 1783.34 2000.00 22 531 58 0.425 2000.000 0.000 0.425 3000.000 0.000 1.516
108 1800.00 2000.00 30 555 52 0.425 2000.000 0.000 0.425 3000.000 0.000 1.516
109 1816.67 2000.00 47 545 68 0.425 2000.000 0.000 0.425 3000.000 0.000 1.516
110 1833.34 2000.00 31 511 63 0.425 2000.000 0.000 0.425 3000.000 0.000 1.516
111 1850.00 2000.00 30 545 44 0.425 2000.000 0.000 0.425 3000.000 0.000 1.516
112 1866.67 2000.00 22 518 53 0.425 2000.000 0.000 0.425 3000.000 0.000 1.516
113 1883.34 2000.00 27 518 50 0.425 2000.000 0.000 0.425 3000.000 0.000 1.516
114 1900.00 2000.00 26 552 41 0.425 2000.000 0.000 0.425 3000.000 0.000 1.516
115 1916.67 2000.00 22 498 42 0.425 2000.000 0.000 0.425 3000.000 0.000 1.516
116 1933.34 2000.00 26 543 52 0.425 2000.000 0.000 0.425 3000.000 0.000 1.516
117 1950.00 2000.00 29 512 55 0.425 2000.000 0.000 0.425 3000.000 0.000 1.516
118 1966.67 2000.00 36 504 65 0.425 2000.000 0.000 0.425 3000.000 0.000 1.516
119 1983.34 2000.00 24 531 55 0.425 2000.000 0.000 0.425 3000.000 0.000 1.516
