# BinNR microsec tot-time (s)  O-Beam H-beam AUX Ampl1(V) f1(Hz) phase1(deg) Ampl1(V) f1(Hz) phase1(deg) chi(pos)
0 0.00 2000.00 24 552 48 0.425 2000.000 0.000 0.425 3000.000 0.000 -0.220
1 16.67 2000.00 26 497 44 0.425 2000.000 0.000 0.425 3000.000 0.000 -0.220
2 33.33 2000.00 33 530 53 0.425 2000.000 0.000 0.425 3000.000 0.000 -0.220
3 50.00 2000.00 31 528 50 0.425 2000.000 0.000 0.425 3000.000 0.000 -0.220
4 66.67 2000.00 26 518 42 0.425 2000.000 0.000 0.425 3000.000 0.000 -0.220
5 83.33 2000.00 23 556 43 0.425 2000.000 0.000 0.425 3000.000 0.000 -0.220
6 100.00 2000.00 17 505 59 0.425 2000.000 0.000 0.425 3000.000 0.000 -0.220
7 116.67 2000.00 22 529 52 0.425 2000.000 0.000 0.425 3000.000 0.000 -0.220
8 133.33 2000.00 21 509 50 0.425 2000.000 0.000 0.425 3000.000 0.000 -0.220
9 150.00 2000.00 28 557 64 0.425 2000.000 0.000 0.425 3000.000 0.000 -0.220
10 166.67 2000.00 30 552 58 0.425 2000.000 0.000 0.425 3000.000 0.000 -0.220
11 183.33 2000.00 26 534 55 0.425 2000.000 0.000 0.425 3000.000 0.000 -0.220
12 200.00 2000.00 34 569 70 0.425 2000.000 0.000 0.425 3000.000 0.000 -0.220
13 216.67 2000.00 31 562 49 0.425 2000.000 0.000 0.425 3000.000 0.000 -0.220
14 233.33 2000.00 26 616 58 0.425 2000.000 0.000 0.425 3000.000 0.000 -0.220
15 250.00 2000.00 24 539 46 0.425 2000.000 0.000 0.425 3000.000 0.000 -0.220
16 266.67 2000.00 28 513 54 0.425 2000.000 0.000 0.425 3000.000 0.000 -0.220
17 283.33 2000.00 26 556 61 0.425 2000.000 0.000 0.425 3000.000 0.000 -0.220
18 300.00 2000.00 24 538 50 0.425 2000.000 0.000 0.425 3000.000 0.000 -0.220
19 316.67 2000.00 26 518 38 0.425 2000.000 0.000 0.425 3000.000 0.000 -0.220
20 333.33 2000.00 23 571 39 0.425 2000.000 0.000 0.425 3000.000 0.000 -0.220
21 350.00 2000.00 24 586 46 0.425 2000.000 0.000 0.425 3000.000 0.000 -0.220
22 366.67 2000.00 20 538 52 0.425 2000.000 0.000 0.425 3000.000 0.000 -0.220
23 383.33 2000.00 27 540 48 0.425 2000.000 0.000 0.425 3000.000 0.000 -0.220
24 400.00 2000.00 19 575 53 0.425 2000.000 0.000 0.425 3000.000 0.000 -0.220
25 416.67 2000.00 22 496 59 0.425 2000.000 0.000 0.425 3000.000 0.000 -0.220
26 433.33 2000.00 14 539 69 0.425 2000.000 0.000 0.425 3000.000 0.000 -0.220
27 450.00 2000.00 19 554 82 0.425 2000.000 0.000 0.425 3000.000 0.000 -0.220
28 466.67 2000.00 26 548 91 0.425 2000.000 0.000 0.425 3000.000 0.000 -0.220
29 483.33 2000.00 20 539 68 0.425 2000.000 0.000 0.425 3000.000 0.000 -0.220
30 500.00 2000.00 26 521 68 0.425 2000.000 0.000 0.425 3000.000 0.000 -0.220
31 516.67 2000.00 21 540 71 0.425 2000.000 0.000 0.425 3000.000 0.000 -0.220
32 533.33 2000.00 28 592 73 0.425 2000.000 0.000 0.425 3000.000 0.000 -0.220
33 550.00 2000.00 34 607 73 0.425 2000.000 0.000 0.425 3000.000 0.000 -0.220
34 566.67 2000.00 30 551 70 0.425 2000.000 0.000 0.425 3000.000 0.000 -0.220
35 583.33 2000.00 21 586 47 0.425 2000.000 0.000 0.425 3000.000 0.000 -0.220
36 600.00 2000.00 29 574 46 0.425 2000.000 0.000 0.425 3000.000 0.000 -0.220
37 616.67 2000.00 30 557 68 0.425 2000.000 0.000 0.425 3000.000 0.000 -0.220
38 633.33 2000.00 24 542 58 0.425 2000.000 0.000 0.425 3000.000 0.000 -0.220
39 650.00 2000.00 27 522 39 0.425 2000.000 0.000 0.425 3000.000 0.000 -0.220
40 666.67 2000.00 28 554 60 0.425 2000.000 0.000 0.425 3000.000 0.000 -0.220
41 683.33 2000.00 20 471 61 0.425 2000.000 0.000 0.425 3000.000 0.000 -0.220
42 700.00 2000.00 31 514 53 0.425 2000.000 0.000 0.425 3000.000 0.000 -0.220
43 716.67 2000.00 14 529 54 0.425 2000.000 0.000 0.425 3000.000 0.000 -0.220
44 733.33 2000.00 22 541 46 0.425 2000.000 0.000 0.425 3000.000 0.000 -0.220
45 750.00 2000.00 23 530 59 0.425 2000.000 0.000 0.425 3000.000 0.000 -0.220
46 766.67 2000.00 22 502 51 0.425 2000.000 0.000 0.425 3000.000 0.000 -0.220
47 783.33 2000.00 19 512 57 0.425 2000.000 0.000 0.425 3000.000 0.000 -0.220
48 800.00 2000.00 32 585 71 0.425 2000.000 0.000 0.425 3000.000 0.000 -0.220
49 816.67 2000.00 24 546 82 0.425 2000.000 0.000 0.425 3000.000 0.000 -0.220
50 833.34 2000.00 19 567 74 0.425 2000.000 0.000 0.425 3000.000 0.000 -0.220
51 850.00 2000.00 31 543 68 0.425 2000.000 0.000 0.425 3000.000 0.000 -0.220
52 866.67 2000.00 23 589 68 0.425 2000.000 0.000 0.425 3000.000 0.000 -0.220
53 883.34 2000.00 22 573 71 0.425 2000.000 0.000 0.425 3000.000 0.000 -0.220
54 900.00 2000.00 24 548 81 0.425 2000.000 0.000 0.425 3000.000 0.000 -0.220
55 916.67 2000.00 26 552 59 0.425 2000.000 0.000 0.425 3000.000 0.000 -0.220
56 933.34 2000.00 27 583 67 0.425 2000.000 0.000 0.425 3000.000 0.000 -0.220
57 950.00 2000.00 19 560 61 0.425 2000.000 0.000 0.425 3000.000 0.000 -0.220
58 966.67 2000.00 15 608 61 0.425 2000.000 0.000 0.425 3000.000 0.000 -0.220
59 983.34 2000.00 27 538 61 0.425 2000.000 0.000 0.425 3000.000 0.000 -0.220
60 1000.00 2000.00 14 567 57 0.425 2000.000 0.000 0.425 3000.000 0.000 -0.220
61 1016.67 2000.00 19 551 68 0.425 2000.000 0.000 0.425 3000.000 0.000 -0.220
62 1033.34 2000.00 26 512 46 0.425 2000.000 0.000 0.425 3000.000 0.000 -0.220
63 1050.00 2000.00 27 524 40 0.425 2000.000 0.000 0.425 3000.000 0.000 -0.220
64 1066.67 2000.00 31 513 51 0.425 2000.000 0.000 0.425 3000.000 0.000 -0.220
65 1083.34 2000.00 23 518 56 0.425 2000.000 0.000 0.425 3000.000 0.000 -0.220
66 1100.00 2000.00 24 546 59 0.425 2000.000 0.000 0.425 3000.000 0.000 -0.220
67 1116.67 2000.00 23 530 60 0.425 2000.000 0.000 0.425 3000.000 0.000 -0.220
68 1133.34 2000.00 23 516 62 0.425 2000.000 0.000 0.425 3000.000 0.000 -0.220
69 1150.00 2000.00 23 541 54 0.425 2000.000 0.000 0.425 3000.000 0.000 -0.220
70 1166.67 2000.00 27 520 48 0.425 2000.000 0.000 0.425 3000.000 0.000 -0.220
71 1183.34 2000.00 18 561 68 0.425 2000.000 0.000 0.425 3000.000 0.000 -0.220
72 1200.00 2000.00 30 550 54 0.425 2000.000 0.000 0.425 3000.000 0.000 -0.220
73 1216.67 2000.00 36 535 58 0.425 2000.000 0.000 0.425 3000.000 0.000 -0.220
74 1233.34 2000.00 25 538 53 0.425 2000.000 0.000 0.425 3000.000 0.000 -0.220
75 1250.00 2000.00 32 561 50 0.425 2000.000 0.000 0.425 3000.000 0.000 -0.220
76 1266.67 2000.00 28 536 50 0.425 2000.000 0.000 0.425 3000.000 0.000 -0.220
77 1283.34 2000.00 25 528 55 0.425 2000.000 0.000 0.425 3000.000 0.000 -0.220
78 1300.00 2000.00 28 547 50 0.425 2000.000 0.000 0.425 3000.000 0.000 -0.220
79 1316.67 2000.00 23 531 56 0.425 2000.000 0.000 0.425 3000.000 0.000 -0.220
80 1333.34 2000.00 11 552 46 0.425 2000.000 0.000 0.425 3000.000 0.000 -0.220
81 1350.00 2000.00 25 553 53 0.425 2000.000 0.000 0.425 3000.000 0.000 -0.220
82 1366.67 2000.00 29 595 56 0.425 2000.000 0.000 0.425 3000.000 0.000 -0.220
83 1383.34 2000.00 21 569 75 0.425 2000.000 0.000 0.425 3000.000 0.000 -0.220
84 1400.00 2000.00 23 522 61 0.425 2000.000 0.000 0.425 3000.000 0.000 -0.220
85 1416.67 2000.00 26 546 71 0.425 2000.000 0.000 0.425 3000.000 0.000 -0.220
86 1433.34 2000.00 24 581 54 0.425 2000.000 0.000 0.425 3000.000 0.000 -0.220
87 1450.00 2000.00 18 563 69 0.425 2000.000 0.000 0.425 3000.000 0.000 -0.220
88 1466.67 2000.00 20 550 71 0.425 2000.000 0.000 0.425 3000.000 0.000 -0.220
89 1483.34 2000.00 27 565 67 0.425 2000.000 0.000 0.425 3000.000 0.000 -0.220
90 1500.00 2000.00 17 553 72 0.425 2000.000 0.000 0.425 3000.000 0.000 -0.220
91 1516.67 2000.00 30 562 71 0.425 2000.000 0.000 0.425 3000.000 0.000 -0.220
92 1533.34 2000.00 30 544 57 0.425 2000.000 0.000 0.425 3000.000 0.000 -0.220
93 1550.00 2000.00 28 597 58 0.425 2000.000 0.000 0.425 3000.000 0.000 -0.220
94 1566.67 2000.00 21 558 63 0.425 2000.000 0.000 0.425 3000.000 0.000 -0.220
95 1583.34 2000.00 30 556 63 0.425 2000.000 0.000 0.425 3000.000 0.000 -0.220
96 1600.00 2000.00 22 573 61 0.425 2000.000 0.000 0.425 3000.000 0.000 -0.220
97 1616.67 2000.00 36 518 63 0.425 2000.000 0.000 0.425 3000.000 0.000 -0.220
98 1633.34 2000.00 21 536 44 0.425 2000.000 0.000 0.425 3000.000 0.000 -0.220
99 1650.00 2000.00 19 532 56 0.425 2000.000 0.000 0.425 3000.000 0.000 -0.220
100 1666.67 2000.00 26 508 66 0.425 2000.000 0.000 0.425 3000.000 0.000 -0.220
101 1683.34 2000.00 22 504 51 0.425 2000.000 0.000 0.425 3000.000 0.000 -0.220
102 1700.00 2000.00 22 539 53 0.425 2000.000 0.000 0.425 3000.000 0.000 -0.220
103 1716.67 2000.00 23 521 47 0.425 2000.000 0.000 0.425 3000.000 0.000 -0.220
104 1733.34 2000.00 19 512 57 0.425 2000.000 0.000 0.425 3000.000 0.000 -0.220
105 1750.00 2000.00 14 557 57 0.425 2000.000 0.000 0.425 3000.000 0.000 -0.220
106 1766.67 2000.00 20 533 51 0.425 2000.000 0.000 0.425 3000.000 0.000 -0.220
107 1783.34 2000.00 27 552 44 0.425 2000.000 0.000 0.425 3000.000 0.000 -0.220
108 1800.00 2000.00 27 523 66 0.425 2000.000 0.000 0.425 3000.000 0.000 -0.220
109 1816.67 2000.00 26 561 70 0.425 2000.000 0.000 0.425 3000.000 0.000 -0.220
110 1833.34 2000.00 16 540 67 0.425 2000.000 0.000 0.425 3000.000 0.000 -0.220
111 1850.00 2000.00 28 553 54 0.425 2000.000 0.000 0.425 3000.000 0.000 -0.220
112 1866.67 2000.00 29 543 75 0.425 2000.000 0.000 0.425 3000.000 0.000 -0.220
113 1883.34 2000.00 24 570 71 0.425 2000.000 0.000 0.425 3000.000 0.000 -0.220
114 1900.00 2000.00 32 604 71 0.425 2000.000 0.000 0.425 3000.000 0.000 -0.220
115 1916.67 2000.00 21 570 76 0.425 2000.000 0.000 0.425 3000.000 0.000 -0.220
116 1933.34 2000.00 26 577 61 0.425 2000.000 0.000 0.425 3000.000 0.000 -0.220
117 1950.00 2000.00 19 566 65 0.425 2000.000 0.000 0.425 3000.000 0.000 -0.220
118 1966.67 2000.00 25 537 53 0.425 2000.000 0.000 0.425 3000.000 0.000 -0.220
119 1983.34 2000.00 25 534 60 0.425 2000.000 0.000 0.425 3000.000 0.000 -0.220
