# BinNR microsec tot-time (s)  O-Beam H-beam AUX Ampl1(V) f1(Hz) phase1(deg) Ampl1(V) f1(Hz) phase1(deg) chi(pos)
0 0.00 2000.00 35 506 80 0.425 2000.000 0.000 0.425 3000.000 0.000 -0.659
1 16.67 2000.00 33 542 72 0.425 2000.000 0.000 0.425 3000.000 0.000 -0.659
2 33.33 2000.00 43 560 82 0.425 2000.000 0.000 0.425 3000.000 0.000 -0.659
3 50.00 2000.00 42 557 82 0.425 2000.000 0.000 0.425 3000.000 0.000 -0.659
4 66.67 2000.00 32 560 62 0.425 2000.000 0.000 0.425 3000.000 0.000 -0.659
5 83.33 2000.00 30 543 76 0.425 2000.000 0.000 0.425 3000.000 0.000 -0.659
6 100.00 2000.00 31 561 81 0.425 2000.000 0.000 0.425 3000.000 0.000 -0.659
7 116.67 2000.00 39 533 82 0.425 2000.000 0.000 0.425 3000.000 0.000 -0.659
8 133.33 2000.00 29 521 78 0.425 2000.000 0.000 0.425 3000.000 0.000 -0.659
9 150.00 2000.00 24 562 71 0.425 2000.000 0.000 0.425 3000.000 0.000 -0.659
10 166.67 2000.00 35 574 77 0.425 2000.000 0.000 0.425 3000.000 0.000 -0.659
11 183.33 2000.00 25 529 75 0.425 2000.000 0.000 0.425 3000.000 0.000 -0.659
12 200.00 2000.00 23 506 71 0.425 2000.000 0.000 0.425 3000.000 0.000 -0.659
13 216.67 2000.00 19 501 66 0.425 2000.000 0.000 0.425 3000.000 0.000 -0.659
14 233.33 2000.00 27 548 97 0.425 2000.000 0.000 0.425 3000.000 0.000 -0.659
15 250.00 2000.00 30 536 70 0.425 2000.000 0.000 0.425 3000.000 0.000 -0.659
16 266.67 2000.00 25 526 95 0.425 2000.000 0.000 0.425 3000.000 0.000 -0.659
17 283.33 2000.00 27 510 97 0.425 2000.000 0.000 0.425 3000.000 0.000 -0.659
18 300.00 2000.00 30 534 91 0.425 2000.000 0.000 0.425 3000.000 0.000 -0.659
19 316.67 2000.00 35 530 92 0.425 2000.000 0.000 0.425 3000.000 0.000 -0.659
20 333.33 2000.00 34 494 72 0.425 2000.000 0.000 0.425 3000.000 0.000 -0.659
21 350.00 2000.00 45 540 84 0.425 2000.000 0.000 0.425 3000.000 0.000 -0.659
22 366.67 2000.00 43 515 85 0.425 2000.000 0.000 0.425 3000.000 0.000 -0.659
23 383.33 2000.00 51 527 69 0.425 2000.000 0.000 0.425 3000.000 0.000 -0.659
24 400.00 2000.00 50 564 74 0.425 2000.000 0.000 0.425 3000.000 0.000 -0.659
25 416.67 2000.00 53 568 57 0.425 2000.000 0.000 0.425 3000.000 0.000 -0.659
26 433.33 2000.00 41 509 59 0.425 2000.000 0.000 0.425 3000.000 0.000 -0.659
27 450.00 2000.00 34 515 63 0.425 2000.000 0.000 0.425 3000.000 0.000 -0.659
28 466.67 2000.00 34 499 54 0.425 2000.000 0.000 0.425 3000.000 0.000 -0.659
29 483.33 2000.00 35 520 54 0.425 2000.000 0.000 0.425 3000.000 0.000 -0.659
30 500.00 2000.00 37 494 59 0.425 2000.000 0.000 0.425 3000.000 0.000 -0.659
31 516.67 2000.00 31 490 49 0.425 2000.000 0.000 0.425 3000.000 0.000 -0.659
32 533.33 2000.00 23 503 46 0.425 2000.000 0.000 0.425 3000.000 0.000 -0.659
33 550.00 2000.00 32 517 62 0.425 2000.000 0.000 0.425 3000.000 0.000 -0.659
34 566.67 2000.00 28 462 63 0.425 2000.000 0.000 0.425 3000.000 0.000 -0.659
35 583.33 2000.00 24 473 59 0.425 2000.000 0.000 0.425 3000.000 0.000 -0.659
36 600.00 2000.00 31 521 62 0.425 2000.000 0.000 0.425 3000.000 0.000 -0.659
37 616.67 2000.00 29 492 83 0.425 2000.000 0.000 0.425 3000.000 0.000 -0.659
38 633.33 2000.00 23 482 99 0.425 2000.000 0.000 0.425 3000.000 0.000 -0.659
39 650.00 2000.00 28 548 88 0.425 2000.000 0.000 0.425 3000.000 0.000 -0.659
40 666.67 2000.00 27 534 92 0.425 2000.000 0.000 0.425 3000.000 0.000 -0.659
41 683.33 2000.00 28 505 96 0.425 2000.000 0.000 0.425 3000.000 0.000 -0.659
42 700.00 2000.00 28 571 106 0.425 2000.000 0.000 0.425 3000.000 0.000 -0.659
43 716.67 2000.00 22 520 93 0.425 2000.000 0.000 0.425 3000.000 0.000 -0.659
44 733.33 2000.00 30 553 90 0.425 2000.000 0.000 0.425 3000.000 0.000 -0.659
45 750.00 2000.00 37 520 79 0.425 2000.000 0.000 0.425 3000.000 0.000 -0.659
46 766.67 2000.00 34 557 87 0.425 2000.000 0.000 0.425 3000.000 0.000 -0.659
47 783.33 2000.00 33 548 77 0.425 2000.000 0.000 0.425 3000.000 0.000 -0.659
48 800.00 2000.00 37 524 81 0.425 2000.000 0.000 0.425 3000.000 0.000 -0.659
49 816.67 2000.00 37 494 75 0.425 2000.000 0.000 0.425 3000.000 0.000 -0.659
50 833.34 2000.00 43 561 75 0.425 2000.000 0.000 0.425 3000.000 0.000 -0.659
51 850.00 2000.00 40 502 62 0.425 2000.000 0.000 0.425 3000.000 0.000 -0.659
52 866.67 2000.00 26 473 78 0.425 2000.000 0.000 0.425 3000.000 0.000 -0.659
53 883.34 2000.00 29 486 59 0.425 2000.000 0.000 0.425 3000.000 0.000 -0.659
54 900.00 2000.00 28 450 63 0.425 2000.000 0.000 0.425 3000.000 0.000 -0.659
55 916.67 2000.00 32 456 61 0.425 2000.000 0.000 0.425 3000.000 0.000 -0.659
56 933.34 2000.00 22 491 62 0.425 2000.000 0.000 0.425 3000.000 0.000 -0.659
57 950.00 2000.00 28 491 70 0.425 2000.000 0.000 0.425 3000.000 0.000 -0.659
58 966.67 2000.00 33 554 76 0.425 2000.000 0.000 0.425 3000.000 0.000 -0.659
59 983.34 2000.00 33 492 68 0.425 2000.000 0.000 0.425 3000.000 0.000 -0.659
60 1000.00 2000.00 39 555 60 0.425 2000.000 0.000 0.425 3000.000 0.000 -0.659
61 1016.67 2000.00 27 502 82 0.425 2000.000 0.000 0.425 3000.000 0.000 -0.659
62 1033.34 2000.00 36 534 87 0.425 2000.000 0.000 0.425 3000.000 0.000 -0.659
63 1050.00 2000.00 29 520 77 0.425 2000.000 0.000 0.425 3000.000 0.000 -0.659
64 1066.67 2000.00 34 516 78 0.425 2000.000 0.000 0.425 3000.000 0.000 -0.659
65 1083.34 2000.00 38 515 73 0.425 2000.000 0.000 0.425 3000.000 0.000 -0.659
66 1100.00 2000.00 42 533 83 0.425 2000.000 0.000 0.425 3000.000 0.000 -0.659
67 1116.67 2000.00 32 569 81 0.425 2000.000 0.000 0.425 3000.000 0.000 -0.659
68 1133.34 2000.00 28 547 59 0.425 2000.000 0.000 0.425 3000.000 0.000 -0.659
69 1150.00 2000.00 30 546 73 0.425 2000.000 0.000 0.425 3000.000 0.000 -0.659
70 1166.67 2000.00 28 520 79 0.425 2000.000 0.000 0.425 3000.000 0.000 -0.659
71 1183.34 2000.00 35 544 77 0.425 2000.000 0.000 0.425 3000.000 0.000 -0.659
72 1200.00 2000.00 27 537 78 0.425 2000.000 0.000 0.425 3000.000 0.000 -0.659
73 1216.67 2000.00 32 506 94 0.425 2000.000 0.000 0.425 3000.000 0.000 -0.659
74 1233.34 2000.00 26 538 71 0.425 2000.000 0.000 0.425 3000.000 0.000 -0.659
75 1250.00 2000.00 26 516 86 0.425 2000.000 0.000 0.425 3000.000 0.000 -0.659
76 1266.67 2000.00 15 510 80 0.425 2000.000 0.000 0.425 3000.000 0.000 -0.659
77 1283.34 2000.00 31 494 59 0.425 2000.000 0.000 0.425 3000.000 0.000 -0.659
78 1300.00 2000.00 37 505 64 0.425 2000.000 0.000 0.425 3000.000 0.000 -0.659
79 1316.67 2000.00 34 551 86 0.425 2000.000 0.000 0.425 3000.000 0.000 -0.659
80 1333.34 2000.00 29 523 83 0.425 2000.000 0.000 0.425 3000.000 0.000 -0.659
81 1350.00 2000.00 42 512 86 0.425 2000.000 0.000 0.425 3000.000 0.000 -0.659
82 1366.67 2000.00 39 532 81 0.425 2000.000 0.000 0.425 3000.000 0.000 -0.659
83 1383.34 2000.00 36 514 84 0.425 2000.000 0.000 0.425 3000.000 0.000 -0.659
84 1400.00 2000.00 51 509 73 0.425 2000.000 0.000 0.425 3000.000 0.000 -0.659
85 1416.67 2000.00 50 513 82 0.425 2000.000 0.000 0.425 3000.000 0.000 -0.659
86 1433.34 2000.00 44 574 72 0.425 2000.000 0.000 0.425 3000.000 0.000 -0.659
87 1450.00 2000.00 42 538 60 0.425 2000.000 0.000 0.425 3000.000 0.000 -0.659
88 1466.67 2000.00 39 524 44 0.425 2000.000 0.000 0.425 3000.000 0.000 -0.659
89 1483.34 2000.00 41 536 70 0.425 2000.000 0.000 0.425 3000.000 0.000 -0.659
90 1500.00 2000.00 24 491 54 0.425 2000.000 0.000 0.425 3000.000 0.000 -0.659
91 1516.67 2000.00 42 484 54 0.425 2000.000 0.000 0.425 3000.000 0.000 -0.659
92 1533.34 2000.00 34 505 57 0.425 2000.000 0.000 0.425 3000.000 0.000 -0.659
93 1550.00 2000.00 29 505 62 0.425 2000.000 0.000 0.425 3000.000 0.000 -0.659
94 1566.67 2000.00 25 498 66 0.425 2000.000 0.000 0.425 3000.000 0.000 -0.659
95 1583.34 2000.00 30 511 74 0.425 2000.000 0.000 0.425 3000.000 0.000 -0.659
96 1600.00 2000.00 30 515 76 0.425 2000.000 0.000 0.425 3000.000 0.000 -0.659
97 1616.67 2000.00 27 507 74 0.425 2000.000 0.000 0.425 3000.000 0.000 -0.659
98 1633.34 2000.00 33 533 81 0.425 2000.000 0.000 0.425 3000.000 0.000 -0.659
99 1650.00 2000.00 25 552 102 0.425 2000.000 0.000 0.425 3000.000 0.000 -0.659
100 1666.67 2000.00 27 545 98 0.425 2000.000 0.000 0.425 3000.000 0.000 -0.659
101 1683.34 2000.00 39 579 113 0.425 2000.000 0.000 0.425 3000.000 0.000 -0.659
102 1700.00 2000.00 37 568 78 0.425 2000.000 0.000 0.425 3000.000 0.000 -0.659
103 1716.67 2000.00 29 522 101 0.425 2000.000 0.000 0.425 3000.000 0.000 -0.659
104 1733.34 2000.00 35 547 95 0.425 2000.000 0.000 0.425 3000.000 0.000 -0.659
105 1750.00 2000.00 40 553 73 0.425 2000.000 0.000 0.425 3000.000 0.000 -0.659
106 1766.67 2000.00 31 511 56 0.425 2000.000 0.000 0.425 3000.000 0.000 -0.659
107 1783.34 2000.00 33 550 63 0.425 2000.000 0.000 0.425 3000.000 0.000 -0.659
108 1800.00 2000.00 40 538 76 0.425 2000.000 0.000 0.425 3000.000 0.000 -0.659
109 1816.67 2000.00 36 531 69 0.425 2000.000 0.000 0.425 3000.000 0.000 -0.659
110 1833.34 2000.00 32 560 78 0.425 2000.000 0.000 0.425 3000.000 0.000 -0.659
111 1850.00 2000.00 36 484 72 0.425 2000.000 0.000 0.425 3000.000 0.000 -0.659
112 1866.67 2000.00 41 505 67 0.425 2000.000 0.000 0.425 3000.000 0.000 -0.659
113 1883.34 2000.00 26 496 63 0.425 2000.000 0.000 0.425 3000.000 0.000 -0.659
114 1900.00 2000.00 31 491 72 0.425 2000.000 0.000 0.425 3000.000 0.000 -0.659
115 1916.67 2000.00 30 467 46 0.425 2000.000 0.000 0.425 3000.000 0.000 -0.659
116 1933.34 2000.00 36 480 58 0.425 2000.000 0.000 0.425 3000.000 0.000 -0.659
117 1950.00 2000.00 28 461 61 0.425 2000.000 0.000 0.425 3000.000 0.000 -0.659
118 1966.67 2000.00 27 491 63 0.425 2000.000 0.000 0.425 3000.000 0.000 -0.659
119 1983.34 2000.00 36 463 59 0.425 2000.000 0.000 0.425 3000.000 0.000 -0.659
