# BinNR microsec tot-time (s)  O-Beam H-beam AUX Ampl1(V) f1(Hz) phase1(deg) Ampl1(V) f1(Hz) phase1(deg) chi(pos)
0 0.00 2000.00 85 334 185 0.425 2000.000 0.000 0.425 3000.000 0.000 0.505
1 16.67 2000.00 58 325 195 0.425 2000.000 0.000 0.425 3000.000 0.000 0.505
2 33.33 2000.00 77 349 195 0.425 2000.000 0.000 0.425 3000.000 0.000 0.505
3 50.00 2000.00 71 343 188 0.425 2000.000 0.000 0.425 3000.000 0.000 0.505
4 66.67 2000.00 75 327 194 0.425 2000.000 0.000 0.425 3000.000 0.000 0.505
5 83.33 2000.00 89 317 163 0.425 2000.000 0.000 0.425 3000.000 0.000 0.505
6 100.00 2000.00 72 322 196 0.425 2000.000 0.000 0.425 3000.000 0.000 0.505
7 116.67 2000.00 78 335 205 0.425 2000.000 0.000 0.425 3000.000 0.000 0.505
8 133.33 2000.00 64 294 183 0.425 2000.000 0.000 0.425 3000.000 0.000 0.505
9 150.00 2000.00 62 344 198 0.425 2000.000 0.000 0.425 3000.000 0.000 0.505
10 166.67 2000.00 69 311 188 0.425 2000.000 0.000 0.425 3000.000 0.000 0.505
11 183.33 2000.00 79 332 198 0.425 2000.000 0.000 0.425 3000.000 0.000 0.505
12 200.00 2000.00 86 354 191 0.425 2000.000 0.000 0.425 3000.000 0.000 0.505
13 216.67 2000.00 74 327 182 0.425 2000.000 0.000 0.425 3000.000 0.000 0.505
14 233.33 2000.00 74 335 162 0.425 2000.000 0.000 0.425 3000.000 0.000 0.505
15 250.00 2000.00 77 328 175 0.425 2000.000 0.000 0.425 3000.000 0.000 0.505
16 266.67 2000.00 90 347 190 0.425 2000.000 0.000 0.425 3000.000 0.000 0.505
17 283.33 2000.00 73 360 184 0.425 2000.000 0.000 0.425 3000.000 0.000 0.505
18 300.00 2000.00 79 391 166 0.425 2000.000 0.000 0.425 3000.000 0.000 0.505
19 316.67 2000.00 94 374 191 0.425 2000.000 0.000 0.425 3000.000 0.000 0.505
20 333.33 2000.00 72 318 189 0.425 2000.000 0.000 0.425 3000.000 0.000 0.505
21 350.00 2000.00 78 314 197 0.425 2000.000 0.000 0.425 3000.000 0.000 0.505
22 366.67 2000.00 74 312 187 0.425 2000.000 0.000 0.425 3000.000 0.000 0.505
23 383.33 2000.00 76 345 199 0.425 2000.000 0.000 0.425 3000.000 0.000 0.505
24 400.00 2000.00 70 321 201 0.425 2000.000 0.000 0.425 3000.000 0.000 0.505
25 416.67 2000.00 66 347 196 0.425 2000.000 0.000 0.425 3000.000 0.000 0.505
26 433.33 2000.00 62 330 210 0.425 2000.000 0.000 0.425 3000.000 0.000 0.505
27 450.00 2000.00 74 330 188 0.425 2000.000 0.000 0.425 3000.000 0.000 0.505
28 466.67 2000.00 71 323 178 0.425 2000.000 0.000 0.425 3000.000 0.000 0.505
29 483.33 2000.00 93 344 213 0.425 2000.000 0.000 0.425 3000.000 0.000 0.505
30 500.00 2000.00 74 337 192 0.425 2000.000 0.000 0.425 3000.000 0.000 0.505
31 516.67 2000.00 88 347 193 0.425 2000.000 0.000 0.425 3000.000 0.000 0.505
32 533.33 2000.00 82 328 208 0.425 2000.000 0.000 0.425 3000.000 0.000 0.505
33 550.00 2000.00 72 339 195 0.425 2000.000 0.000 0.425 3000.000 0.000 0.505
34 566.67 2000.00 73 340 192 0.425 2000.000 0.000 0.425 3000.000 0.000 0.505
35 583.33 2000.00 72 332 188 0.425 2000.000 0.000 0.425 3000.000 0.000 0.505
36 600.00 2000.00 83 291 171 0.425 2000.000 0.000 0.425 3000.000 0.000 0.505
37 616.67 2000.00 79 342 159 0.425 2000.000 0.000 0.425 3000.000 0.000 0.505
38 633.33 2000.00 66 332 183 0.425 2000.000 0.000 0.425 3000.000 0.000 0.505
39 650.00 2000.00 63 296 172 0.425 2000.000 0.000 0.425 3000.000 0.000 0.505
40 666.67 2000.00 93 331 183 0.425 2000.000 0.000 0.425 3000.000 0.000 0.505
41 683.33 2000.00 90 293 165 0.425 2000.000 0.000 0.425 3000.000 0.000 0.505
42 700.00 2000.00 94 296 172 0.425 2000.000 0.000 0.425 3000.000 0.000 0.505
43 716.67 2000.00 65 313 176 0.425 2000.000 0.000 0.425 3000.000 0.000 0.505
44 733.33 2000.00 72 304 187 0.425 2000.000 0.000 0.425 3000.000 0.000 0.505
45 750.00 2000.00 62 322 172 0.425 2000.000 0.000 0.425 3000.000 0.000 0.505
46 766.67 2000.00 71 324 198 0.425 2000.000 0.000 0.425 3000.000 0.000 0.505
47 783.33 2000.00 56 340 189 0.425 2000.000 0.000 0.425 3000.000 0.000 0.505
48 800.00 2000.00 63 319 169 0.425 2000.000 0.000 0.425 3000.000 0.000 0.505
49 816.67 2000.00 76 339 211 0.425 2000.000 0.000 0.425 3000.000 0.000 0.505
50 833.34 2000.00 73 357 199 0.425 2000.000 0.000 0.425 3000.000 0.000 0.505
51 850.00 2000.00 68 377 192 0.425 2000.000 0.000 0.425 3000.000 0.000 0.505
52 866.67 2000.00 80 346 193 0.425 2000.000 0.000 0.425 3000.000 0.000 0.505
53 883.34 2000.00 72 351 180 0.425 2000.000 0.000 0.425 3000.000 0.000 0.505
54 900.00 2000.00 96 344 189 0.425 2000.000 0.000 0.425 3000.000 0.000 0.505
55 916.67 2000.00 66 389 230 0.425 2000.000 0.000 0.425 3000.000 0.000 0.505
56 933.34 2000.00 62 372 186 0.425 2000.000 0.000 0.425 3000.000 0.000 0.505
57 950.00 2000.00 75 315 173 0.425 2000.000 0.000 0.425 3000.000 0.000 0.505
58 966.67 2000.00 68 334 206 0.425 2000.000 0.000 0.425 3000.000 0.000 0.505
59 983.34 2000.00 77 345 175 0.425 2000.000 0.000 0.425 3000.000 0.000 0.505
60 1000.00 2000.00 69 373 184 0.425 2000.000 0.000 0.425 3000.000 0.000 0.505
61 1016.67 2000.00 81 331 192 0.425 2000.000 0.000 0.425 3000.000 0.000 0.505
62 1033.34 2000.00 56 350 205 0.425 2000.000 0.000 0.425 3000.000 0.000 0.505
63 1050.00 2000.00 75 314 170 0.425 2000.000 0.000 0.425 3000.000 0.000 0.505
64 1066.67 2000.00 55 326 177 0.425 2000.000 0.000 0.425 3000.000 0.000 0.505
65 1083.34 2000.00 72 322 180 0.425 2000.000 0.000 0.425 3000.000 0.000 0.505
66 1100.00 2000.00 75 311 177 0.425 2000.000 0.000 0.425 3000.000 0.000 0.505
67 1116.67 2000.00 86 312 189 0.425 2000.000 0.000 0.425 3000.000 0.000 0.505
68 1133.34 2000.00 92 302 201 0.425 2000.000 0.000 0.425 3000.000 0.000 0.505
69 1150.00 2000.00 73 308 177 0.425 2000.000 0.000 0.425 3000.000 0.000 0.505
70 1166.67 2000.00 97 326 190 0.425 2000.000 0.000 0.425 3000.000 0.000 0.505
71 1183.34 2000.00 84 288 215 0.425 2000.000 0.000 0.425 3000.000 0.000 0.505
72 1200.00 2000.00 82 319 194 0.425 2000.000 0.000 0.425 3000.000 0.000 0.505
73 1216.67 2000.00 87 342 203 0.425 2000.000 0.000 0.425 3000.000 0.000 0.505
74 1233.34 2000.00 78 334 176 0.425 2000.000 0.000 0.425 3000.000 0.000 0.505
75 1250.00 2000.00 79 346 162 0.425 2000.000 0.000 0.425 3000.000 0.000 0.505
76 1266.67 2000.00 72 359 194 0.425 2000.000 0.000 0.425 3000.000 0.000 0.505
77 1283.34 2000.00 88 345 178 0.425 2000.000 0.000 0.425 3000.000 0.000 0.505
78 1300.00 2000.00 59 350 201 0.425 2000.000 0.000 0.425 3000.000 0.000 0.505
79 1316.67 2000.00 76 357 197 0.425 2000.000 0.000 0.425 3000.000 0.000 0.505
80 1333.34 2000.00 68 339 204 0.425 2000.000 0.000 0.425 3000.000 0.000 0.505
81 1350.00 2000.00 79 356 171 0.425 2000.000 0.000 0.425 3000.000 0.000 0.505
82 1366.67 2000.00 75 318 213 0.425 2000.000 0.000 0.425 3000.000 0.000 0.505
83 1383.34 2000.00 65 304 192 0.425 2000.000 0.000 0.425 3000.000 0.000 0.505
84 1400.00 2000.00 63 359 196 0.425 2000.000 0.000 0.425 3000.000 0.000 0.505
85 1416.67 2000.00 73 336 182 0.425 2000.000 0.000 0.425 3000.000 0.000 0.505
86 1433.34 2000.00 68 349 191 0.425 2000.000 0.000 0.425 3000.000 0.000 0.505
87 1450.00 2000.00 69 359 178 0.425 2000.000 0.000 0.425 3000.000 0.000 0.505
88 1466.67 2000.00 72 364 205 0.425 2000.000 0.000 0.425 3000.000 0.000 0.505
89 1483.34 2000.00 75 335 190 0.425 2000.000 0.000 0.425 3000.000 0.000 0.505
90 1500.00 2000.00 79 351 195 0.425 2000.000 0.000 0.425 3000.000 0.000 0.505
91 1516.67 2000.00 64 346 210 0.425 2000.000 0.000 0.425 3000.000 0.000 0.505
92 1533.34 2000.00 78 346 203 0.425 2000.000 0.000 0.425 3000.000 0.000 0.505
93 1550.00 2000.00 88 362 183 0.425 2000.000 0.000 0.425 3000.000 0.000 0.505
94 1566.67 2000.00 71 338 195 0.425 2000.000 0.000 0.425 3000.000 0.000 0.505
95 1583.34 2000.00 69 344 173 0.425 2000.000 0.000 0.425 3000.000 0.000 0.505
96 1600.00 2000.00 66 337 200 0.425 2000.000 0.000 0.425 3000.000 0.000 0.505
97 1616.67 2000.00 84 329 192 0.425 2000.000 0.000 0.425 3000.000 0.000 0.505
98 1633.34 2000.00 75 352 192 0.425 2000.000 0.000 0.425 3000.000 0.000 0.505
99 1650.00 2000.00 64 328 179 0.425 2000.000 0.000 0.425 3000.000 0.000 0.505
100 1666.67 2000.00 58 312 178 0.425 2000.000 0.000 0.425 3000.000 0.000 0.505
101 1683.34 2000.00 67 327 166 0.425 2000.000 0.000 0.425 3000.000 0.000 0.505
102 1700.00 2000.00 74 304 170 0.425 2000.000 0.000 0.425 3000.000 0.000 0.505
103 1716.67 2000.00 81 308 185 0.425 2000.000 0.000 0.425 3000.000 0.000 0.505
104 1733.34 2000.00 66 311 169 0.425 2000.000 0.000 0.425 3000.000 0.000 0.505
105 1750.00 2000.00 83 342 192 0.425 2000.000 0.000 0.425 3000.000 0.000 0.505
106 1766.67 2000.00 66 337 198 0.425 2000.000 0.000 0.425 3000.000 0.000 0.505
107 1783.34 2000.00 73 360 194 0.425 2000.000 0.000 0.425 3000.000 0.000 0.505
108 1800.00 2000.00 57 312 204 0.425 2000.000 0.000 0.425 3000.000 0.000 0.505
109 1816.67 2000.00 70 319 198 0.425 2000.000 0.000 0.425 3000.000 0.000 0.505
110 1833.34 2000.00 53 353 193 0.425 2000.000 0.000 0.425 3000.000 0.000 0.505
111 1850.00 2000.00 67 379 209 0.425 2000.000 0.000 0.425 3000.000 0.000 0.505
112 1866.67 2000.00 60 367 193 0.425 2000.000 0.000 0.425 3000.000 0.000 0.505
113 1883.34 2000.00 80 385 229 0.425 2000.000 0.000 0.425 3000.000 0.000 0.505
114 1900.00 2000.00 73 377 228 0.425 2000.000 0.000 0.425 3000.000 0.000 0.505
115 1916.67 2000.00 69 344 217 0.425 2000.000 0.000 0.425 3000.000 0.000 0.505
116 1933.34 2000.00 75 367 189 0.425 2000.000 0.000 0.425 3000.000 0.000 0.505
117 1950.00 2000.00 69 356 201 0.425 2000.000 0.000 0.425 3000.000 0.000 0.505
118 1966.67 2000.00 60 339 203 0.425 2000.000 0.000 0.425 3000.000 0.000 0.505
119 1983.34 2000.00 70 319 170 0.425 2000.000 0.000 0.425 3000.000 0.000 0.505
