# BinNR microsec tot-time (s)  O-Beam H-beam AUX Ampl1(V) f1(Hz) phase1(deg) Ampl1(V) f1(Hz) phase1(deg) chi(pos)
0 0.00 2000.00 52 389 148 0.425 2000.000 0.000 0.425 3000.000 0.000 1.077
1 16.67 2000.00 66 410 179 0.425 2000.000 0.000 0.425 3000.000 0.000 1.077
2 33.33 2000.00 75 390 171 0.425 2000.000 0.000 0.425 3000.000 0.000 1.077
3 50.00 2000.00 78 419 167 0.425 2000.000 0.000 0.425 3000.000 0.000 1.077
4 66.67 2000.00 78 450 161 0.425 2000.000 0.000 0.425 3000.000 0.000 1.077
5 83.33 2000.00 61 416 151 0.425 2000.000 0.000 0.425 3000.000 0.000 1.077
6 100.00 2000.00 76 427 171 0.425 2000.000 0.000 0.425 3000.000 0.000 1.077
7 116.67 2000.00 59 424 164 0.425 2000.000 0.000 0.425 3000.000 0.000 1.077
8 133.33 2000.00 75 437 131 0.425 2000.000 0.000 0.425 3000.000 0.000 1.077
9 150.00 2000.00 61 426 169 0.425 2000.000 0.000 0.425 3000.000 0.000 1.077
10 166.67 2000.00 57 398 143 0.425 2000.000 0.000 0.425 3000.000 0.000 1.077
11 183.33 2000.00 60 450 144 0.425 2000.000 0.000 0.425 3000.000 0.000 1.077
12 200.00 2000.00 54 401 155 0.425 2000.000 0.000 0.425 3000.000 0.000 1.077
13 216.67 2000.00 57 445 143 0.425 2000.000 0.000 0.425 3000.000 0.000 1.077
14 233.33 2000.00 49 402 158 0.425 2000.000 0.000 0.425 3000.000 0.000 1.077
15 250.00 2000.00 57 392 144 0.425 2000.000 0.000 0.425 3000.000 0.000 1.077
16 266.67 2000.00 48 422 172 0.425 2000.000 0.000 0.425 3000.000 0.000 1.077
17 283.33 2000.00 46 377 183 0.425 2000.000 0.000 0.425 3000.000 0.000 1.077
18 300.00 2000.00 62 378 165 0.425 2000.000 0.000 0.425 3000.000 0.000 1.077
19 316.67 2000.00 71 389 160 0.425 2000.000 0.000 0.425 3000.000 0.000 1.077
20 333.33 2000.00 69 416 157 0.425 2000.000 0.000 0.425 3000.000 0.000 1.077
21 350.00 2000.00 56 397 166 0.425 2000.000 0.000 0.425 3000.000 0.000 1.077
22 366.67 2000.00 76 410 173 0.425 2000.000 0.000 0.425 3000.000 0.000 1.077
23 383.33 2000.00 68 403 163 0.425 2000.000 0.000 0.425 3000.000 0.000 1.077
24 400.00 2000.00 64 395 150 0.425 2000.000 0.000 0.425 3000.000 0.000 1.077
25 416.67 2000.00 56 390 145 0.425 2000.000 0.000 0.425 3000.000 0.000 1.077
26 433.33 2000.00 76 387 121 0.425 2000.000 0.000 0.425 3000.000 0.000 1.077
27 450.00 2000.00 75 435 129 0.425 2000.000 0.000 0.425 3000.000 0.000 1.077
28 466.67 2000.00 82 395 127 0.425 2000.000 0.000 0.425 3000.000 0.000 1.077
29 483.33 2000.00 65 371 124 0.425 2000.000 0.000 0.425 3000.000 0.000 1.077
30 500.00 2000.00 63 369 117 0.425 2000.000 0.000 0.425 3000.000 0.000 1.077
31 516.67 2000.00 60 370 125 0.425 2000.000 0.000 0.425 3000.000 0.000 1.077
32 533.33 2000.00 56 366 144 0.425 2000.000 0.000 0.425 3000.000 0.000 1.077
33 550.00 2000.00 47 370 111 0.425 2000.000 0.000 0.425 3000.000 0.000 1.077
34 566.67 2000.00 72 375 147 0.425 2000.000 0.000 0.425 3000.000 0.000 1.077
35 583.33 2000.00 53 421 135 0.425 2000.000 0.000 0.425 3000.000 0.000 1.077
36 600.00 2000.00 67 400 158 0.425 2000.000 0.000 0.425 3000.000 0.000 1.077
37 616.67 2000.00 55 433 155 0.425 2000.000 0.000 0.425 3000.000 0.000 1.077
38 633.33 2000.00 56 402 167 0.425 2000.000 0.000 0.425 3000.000 0.000 1.077
39 650.00 2000.00 46 443 164 0.425 2000.000 0.000 0.425 3000.000 0.000 1.077
40 666.67 2000.00 51 430 174 0.425 2000.000 0.000 0.425 3000.000 0.000 1.077
41 683.33 2000.00 54 466 187 0.425 2000.000 0.000 0.425 3000.000 0.000 1.077
42 700.00 2000.00 58 437 171 0.425 2000.000 0.000 0.425 3000.000 0.000 1.077
43 716.67 2000.00 63 450 176 0.425 2000.000 0.000 0.425 3000.000 0.000 1.077
44 733.33 2000.00 59 454 170 0.425 2000.000 0.000 0.425 3000.000 0.000 1.077
45 750.00 2000.00 59 445 158 0.425 2000.000 0.000 0.425 3000.000 0.000 1.077
46 766.67 2000.00 70 446 173 0.425 2000.000 0.000 0.425 3000.000 0.000 1.077
47 783.33 2000.00 82 410 141 0.425 2000.000 0.000 0.425 3000.000 0.000 1.077
48 800.00 2000.00 65 407 147 0.425 2000.000 0.000 0.425 3000.000 0.000 1.077
49 816.67 2000.00 63 406 145 0.425 2000.000 0.000 0.425 3000.000 0.000 1.077
50 833.34 2000.00 62 395 124 0.425 2000.000 0.000 0.425 3000.000 0.000 1.077
51 850.00 2000.00 61 378 138 0.425 2000.000 0.000 0.425 3000.000 0.000 1.077
52 866.67 2000.00 67 359 118 0.425 2000.000 0.000 0.425 3000.000 0.000 1.077
53 883.34 2000.00 60 370 120 0.425 2000.000 0.000 0.425 3000.000 0.000 1.077
54 900.00 2000.00 67 363 124 0.425 2000.000 0.000 0.425 3000.000 0.000 1.077
55 916.67 2000.00 64 357 144 0.425 2000.000 0.000 0.425 3000.000 0.000 1.077
56 933.34 2000.00 51 338 130 0.425 2000.000 0.000 0.425 3000.000 0.000 1.077
57 950.00 2000.00 68 392 162 0.425 2000.000 0.000 0.425 3000.000 0.000 1.077
58 966.67 2000.00 52 354 156 0.425 2000.000 0.000 0.425 3000.000 0.000 1.077
59 983.34 2000.00 63 378 157 0.425 2000.000 0.000 0.425 3000.000 0.000 1.077
60 1000.00 2000.00 57 381 159 0.425 2000.000 0.000 0.425 3000.000 0.000 1.077
61 1016.67 2000.00 73 402 154 0.425 2000.000 0.000 0.425 3000.000 0.000 1.077
62 1033.34 2000.00 82 466 164 0.425 2000.000 0.000 0.425 3000.000 0.000 1.077
63 1050.00 2000.00 56 429 171 0.425 2000.000 0.000 0.425 3000.000 0.000 1.077
64 1066.67 2000.00 54 424 166 0.425 2000.000 0.000 0.425 3000.000 0.000 1.077
65 1083.34 2000.00 67 485 140 0.425 2000.000 0.000 0.425 3000.000 0.000 1.077
66 1100.00 2000.00 59 448 156 0.425 2000.000 0.000 0.425 3000.000 0.000 1.077
67 1116.67 2000.00 70 456 130 0.425 2000.000 0.000 0.425 3000.000 0.000 1.077
68 1133.34 2000.00 63 416 133 0.425 2000.000 0.000 0.425 3000.000 0.000 1.077
69 1150.00 2000.00 64 455 146 0.425 2000.000 0.000 0.425 3000.000 0.000 1.077
70 1166.67 2000.00 46 428 142 0.425 2000.000 0.000 0.425 3000.000 0.000 1.077
71 1183.34 2000.00 60 441 144 0.425 2000.000 0.000 0.425 3000.000 0.000 1.077
72 1200.00 2000.00 51 380 161 0.425 2000.000 0.000 0.425 3000.000 0.000 1.077
73 1216.67 2000.00 45 413 126 0.425 2000.000 0.000 0.425 3000.000 0.000 1.077
74 1233.34 2000.00 53 401 153 0.425 2000.000 0.000 0.425 3000.000 0.000 1.077
75 1250.00 2000.00 58 357 156 0.425 2000.000 0.000 0.425 3000.000 0.000 1.077
76 1266.67 2000.00 57 368 162 0.425 2000.000 0.000 0.425 3000.000 0.000 1.077
77 1283.34 2000.00 57 373 180 0.425 2000.000 0.000 0.425 3000.000 0.000 1.077
78 1300.00 2000.00 71 392 160 0.425 2000.000 0.000 0.425 3000.000 0.000 1.077
79 1316.67 2000.00 57 401 156 0.425 2000.000 0.000 0.425 3000.000 0.000 1.077
80 1333.34 2000.00 54 420 163 0.425 2000.000 0.000 0.425 3000.000 0.000 1.077
81 1350.00 2000.00 72 392 184 0.425 2000.000 0.000 0.425 3000.000 0.000 1.077
82 1366.67 2000.00 57 384 145 0.425 2000.000 0.000 0.425 3000.000 0.000 1.077
83 1383.34 2000.00 73 377 141 0.425 2000.000 0.000 0.425 3000.000 0.000 1.077
84 1400.00 2000.00 66 414 147 0.425 2000.000 0.000 0.425 3000.000 0.000 1.077
85 1416.67 2000.00 71 371 131 0.425 2000.000 0.000 0.425 3000.000 0.000 1.077
86 1433.34 2000.00 64 394 130 0.425 2000.000 0.000 0.425 3000.000 0.000 1.077
87 1450.00 2000.00 77 384 140 0.425 2000.000 0.000 0.425 3000.000 0.000 1.077
88 1466.67 2000.00 76 403 144 0.425 2000.000 0.000 0.425 3000.000 0.000 1.077
89 1483.34 2000.00 60 353 124 0.425 2000.000 0.000 0.425 3000.000 0.000 1.077
90 1500.00 2000.00 50 403 101 0.425 2000.000 0.000 0.425 3000.000 0.000 1.077
91 1516.67 2000.00 58 390 116 0.425 2000.000 0.000 0.425 3000.000 0.000 1.077
92 1533.34 2000.00 72 414 115 0.425 2000.000 0.000 0.425 3000.000 0.000 1.077
93 1550.00 2000.00 73 398 109 0.425 2000.000 0.000 0.425 3000.000 0.000 1.077
94 1566.67 2000.00 61 412 145 0.425 2000.000 0.000 0.425 3000.000 0.000 1.077
95 1583.34 2000.00 51 386 147 0.425 2000.000 0.000 0.425 3000.000 0.000 1.077
96 1600.00 2000.00 56 360 157 0.425 2000.000 0.000 0.425 3000.000 0.000 1.077
97 1616.67 2000.00 40 422 164 0.425 2000.000 0.000 0.425 3000.000 0.000 1.077
98 1633.34 2000.00 54 427 180 0.425 2000.000 0.000 0.425 3000.000 0.000 1.077
99 1650.00 2000.00 53 431 184 0.425 2000.000 0.000 0.425 3000.000 0.000 1.077
100 1666.67 2000.00 65 448 158 0.425 2000.000 0.000 0.425 3000.000 0.000 1.077
101 1683.34 2000.00 47 408 160 0.425 2000.000 0.000 0.425 3000.000 0.000 1.077
102 1700.00 2000.00 59 461 165 0.425 2000.000 0.000 0.425 3000.000 0.000 1.077
103 1716.67 2000.00 75 462 181 0.425 2000.000 0.000 0.425 3000.000 0.000 1.077
104 1733.34 2000.00 70 456 187 0.425 2000.000 0.000 0.425 3000.000 0.000 1.077
105 1750.00 2000.00 63 448 159 0.425 2000.000 0.000 0.425 3000.000 0.000 1.077
106 1766.67 2000.00 66 464 128 0.425 2000.000 0.000 0.425 3000.000 0.000 1.077
107 1783.34 2000.00 55 442 179 0.425 2000.000 0.000 0.425 3000.000 0.000 1.077
108 1800.00 2000.00 70 406 151 0.425 2000.000 0.000 0.425 3000.000 0.000 1.077
109 1816.67 2000.00 58 399 127 0.425 2000.000 0.000 0.425 3000.000 0.000 1.077
110 1833.34 2000.00 56 393 137 0.425 2000.000 0.000 0.425 3000.000 0.000 1.077
111 1850.00 2000.00 65 370 129 0.425 2000.000 0.000 0.425 3000.000 0.000 1.077
112 1866.67 2000.00 55 402 122 0.425 2000.000 0.000 0.425 3000.000 0.000 1.077
113 1883.34 2000.00 71 370 143 0.425 2000.000 0.000 0.425 3000.000 0.000 1.077
114 1900.00 2000.00 74 356 132 0.425 2000.000 0.000 0.425 3000.000 0.000 1.077
115 1916.67 2000.00 62 354 134 0.425 2000.000 0.000 0.425 3000.000 0.000 1.077
116 1933.34 2000.00 66 357 133 0.425 2000.000 0.000 0.425 3000.000 0.000 1.077
117 1950.00 2000.00 61 320 126 0.425 2000.000 0.000 0.425 3000.000 0.000 1.077
118 1966.67 2000.00 62 390 139 0.425 2000.000 0.000 0.425 3000.000 0.000 1.077
119 1983.34 2000.00 56 356 142 0.425 2000.000 0.000 0.425 3000.000 0.000 1.077
