# BinNR microsec tot-time (s)  O-Beam H-beam AUX Ampl1(V) f1(Hz) phase1(deg) Ampl1(V) f1(Hz) phase1(deg) chi(pos)
0 0.00 2000.00 65 303 215 0.425 2000.000 0.000 0.425 3000.000 0.000 0.648
1 16.67 2000.00 69 318 203 0.425 2000.000 0.000 0.425 3000.000 0.000 0.648
2 33.33 2000.00 79 321 201 0.425 2000.000 0.000 0.425 3000.000 0.000 0.648
3 50.00 2000.00 70 324 208 0.425 2000.000 0.000 0.425 3000.000 0.000 0.648
4 66.67 2000.00 69 306 211 0.425 2000.000 0.000 0.425 3000.000 0.000 0.648
5 83.33 2000.00 84 317 183 0.425 2000.000 0.000 0.425 3000.000 0.000 0.648
6 100.00 2000.00 87 313 203 0.425 2000.000 0.000 0.425 3000.000 0.000 0.648
7 116.67 2000.00 65 307 188 0.425 2000.000 0.000 0.425 3000.000 0.000 0.648
8 133.33 2000.00 74 288 206 0.425 2000.000 0.000 0.425 3000.000 0.000 0.648
9 150.00 2000.00 78 333 211 0.425 2000.000 0.000 0.425 3000.000 0.000 0.648
10 166.67 2000.00 72 318 214 0.425 2000.000 0.000 0.425 3000.000 0.000 0.648
11 183.33 2000.00 87 315 188 0.425 2000.000 0.000 0.425 3000.000 0.000 0.648
12 200.00 2000.00 69 289 224 0.425 2000.000 0.000 0.425 3000.000 0.000 0.648
13 216.67 2000.00 77 339 210 0.425 2000.000 0.000 0.425 3000.000 0.000 0.648
14 233.33 2000.00 74 325 180 0.425 2000.000 0.000 0.425 3000.000 0.000 0.648
15 250.00 2000.00 83 301 213 0.425 2000.000 0.000 0.425 3000.000 0.000 0.648
16 266.67 2000.00 79 313 223 0.425 2000.000 0.000 0.425 3000.000 0.000 0.648
17 283.33 2000.00 75 322 216 0.425 2000.000 0.000 0.425 3000.000 0.000 0.648
18 300.00 2000.00 84 323 210 0.425 2000.000 0.000 0.425 3000.000 0.000 0.648
19 316.67 2000.00 86 313 205 0.425 2000.000 0.000 0.425 3000.000 0.000 0.648
20 333.33 2000.00 81 296 189 0.425 2000.000 0.000 0.425 3000.000 0.000 0.648
21 350.00 2000.00 60 300 207 0.425 2000.000 0.000 0.425 3000.000 0.000 0.648
22 366.67 2000.00 63 324 200 0.425 2000.000 0.000 0.425 3000.000 0.000 0.648
23 383.33 2000.00 66 316 182 0.425 2000.000 0.000 0.425 3000.000 0.000 0.648
24 400.00 2000.00 91 329 196 0.425 2000.000 0.000 0.425 3000.000 0.000 0.648
25 416.67 2000.00 74 323 195 0.425 2000.000 0.000 0.425 3000.000 0.000 0.648
26 433.33 2000.00 70 330 185 0.425 2000.000 0.000 0.425 3000.000 0.000 0.648
27 450.00 2000.00 71 324 175 0.425 2000.000 0.000 0.425 3000.000 0.000 0.648
28 466.67 2000.00 77 299 209 0.425 2000.000 0.000 0.425 3000.000 0.000 0.648
29 483.33 2000.00 75 347 187 0.425 2000.000 0.000 0.425 3000.000 0.000 0.648
30 500.00 2000.00 83 337 185 0.425 2000.000 0.000 0.425 3000.000 0.000 0.648
31 516.67 2000.00 85 296 194 0.425 2000.000 0.000 0.425 3000.000 0.000 0.648
32 533.33 2000.00 76 320 201 0.425 2000.000 0.000 0.425 3000.000 0.000 0.648
33 550.00 2000.00 75 293 210 0.425 2000.000 0.000 0.425 3000.000 0.000 0.648
34 566.67 2000.00 71 350 197 0.425 2000.000 0.000 0.425 3000.000 0.000 0.648
35 583.33 2000.00 69 333 222 0.425 2000.000 0.000 0.425 3000.000 0.000 0.648
36 600.00 2000.00 76 310 194 0.425 2000.000 0.000 0.425 3000.000 0.000 0.648
37 616.67 2000.00 87 350 186 0.425 2000.000 0.000 0.425 3000.000 0.000 0.648
38 633.33 2000.00 80 352 202 0.425 2000.000 0.000 0.425 3000.000 0.000 0.648
39 650.00 2000.00 92 290 194 0.425 2000.000 0.000 0.425 3000.000 0.000 0.648
40 666.67 2000.00 91 305 182 0.425 2000.000 0.000 0.425 3000.000 0.000 0.648
41 683.33 2000.00 68 296 200 0.425 2000.000 0.000 0.425 3000.000 0.000 0.648
42 700.00 2000.00 78 310 226 0.425 2000.000 0.000 0.425 3000.000 0.000 0.648
43 716.67 2000.00 66 325 213 0.425 2000.000 0.000 0.425 3000.000 0.000 0.648
44 733.33 2000.00 61 334 178 0.425 2000.000 0.000 0.425 3000.000 0.000 0.648
45 750.00 2000.00 91 295 207 0.425 2000.000 0.000 0.425 3000.000 0.000 0.648
46 766.67 2000.00 94 309 207 0.425 2000.000 0.000 0.425 3000.000 0.000 0.648
47 783.33 2000.00 75 312 179 0.425 2000.000 0.000 0.425 3000.000 0.000 0.648
48 800.00 2000.00 70 334 207 0.425 2000.000 0.000 0.425 3000.000 0.000 0.648
49 816.67 2000.00 74 322 196 0.425 2000.000 0.000 0.425 3000.000 0.000 0.648
50 833.34 2000.00 81 304 194 0.425 2000.000 0.000 0.425 3000.000 0.000 0.648
51 850.00 2000.00 85 334 206 0.425 2000.000 0.000 0.425 3000.000 0.000 0.648
52 866.67 2000.00 88 329 182 0.425 2000.000 0.000 0.425 3000.000 0.000 0.648
53 883.34 2000.00 97 340 200 0.425 2000.000 0.000 0.425 3000.000 0.000 0.648
54 900.00 2000.00 74 345 207 0.425 2000.000 0.000 0.425 3000.000 0.000 0.648
55 916.67 2000.00 79 331 217 0.425 2000.000 0.000 0.425 3000.000 0.000 0.648
56 933.34 2000.00 75 321 197 0.425 2000.000 0.000 0.425 3000.000 0.000 0.648
57 950.00 2000.00 81 319 216 0.425 2000.000 0.000 0.425 3000.000 0.000 0.648
58 966.67 2000.00 92 292 213 0.425 2000.000 0.000 0.425 3000.000 0.000 0.648
59 983.34 2000.00 97 341 193 0.425 2000.000 0.000 0.425 3000.000 0.000 0.648
60 1000.00 2000.00 55 360 206 0.425 2000.000 0.000 0.425 3000.000 0.000 0.648
61 1016.67 2000.00 87 303 158 0.425 2000.000 0.000 0.425 3000.000 0.000 0.648
62 1033.34 2000.00 64 337 178 0.425 2000.000 0.000 0.425 3000.000 0.000 0.648
63 1050.00 2000.00 70 301 188 0.425 2000.000 0.000 0.425 3000.000 0.000 0.648
64 1066.67 2000.00 75 311 188 0.425 2000.000 0.000 0.425 3000.000 0.000 0.648
65 1083.34 2000.00 84 311 219 0.425 2000.000 0.000 0.425 3000.000 0.000 0.648
66 1100.00 2000.00 73 321 205 0.425 2000.000 0.000 0.425 3000.000 0.000 0.648
67 1116.67 2000.00 102 318 226 0.425 2000.000 0.000 0.425 3000.000 0.000 0.648
68 1133.34 2000.00 60 306 191 0.425 2000.000 0.000 0.425 3000.000 0.000 0.648
69 1150.00 2000.00 82 319 217 0.425 2000.000 0.000 0.425 3000.000 0.000 0.648
70 1166.67 2000.00 73 326 221 0.425 2000.000 0.000 0.425 3000.000 0.000 0.648
71 1183.34 2000.00 63 357 186 0.425 2000.000 0.000 0.425 3000.000 0.000 0.648
72 1200.00 2000.00 87 330 217 0.425 2000.000 0.000 0.425 3000.000 0.000 0.648
73 1216.67 2000.00 84 356 190 0.425 2000.000 0.000 0.425 3000.000 0.000 0.648
74 1233.34 2000.00 83 335 192 0.425 2000.000 0.000 0.425 3000.000 0.000 0.648
75 1250.00 2000.00 80 354 201 0.425 2000.000 0.000 0.425 3000.000 0.000 0.648
76 1266.67 2000.00 73 337 201 0.425 2000.000 0.000 0.425 3000.000 0.000 0.648
77 1283.34 2000.00 98 347 223 0.425 2000.000 0.000 0.425 3000.000 0.000 0.648
78 1300.00 2000.00 85 345 225 0.425 2000.000 0.000 0.425 3000.000 0.000 0.648
79 1316.67 2000.00 67 306 192 0.425 2000.000 0.000 0.425 3000.000 0.000 0.648
80 1333.34 2000.00 69 315 195 0.425 2000.000 0.000 0.425 3000.000 0.000 0.648
81 1350.00 2000.00 86 302 162 0.425 2000.000 0.000 0.425 3000.000 0.000 0.648
82 1366.67 2000.00 79 321 219 0.425 2000.000 0.000 0.425 3000.000 0.000 0.648
83 1383.34 2000.00 77 302 225 0.425 2000.000 0.000 0.425 3000.000 0.000 0.648
84 1400.00 2000.00 70 326 206 0.425 2000.000 0.000 0.425 3000.000 0.000 0.648
85 1416.67 2000.00 71 333 208 0.425 2000.000 0.000 0.425 3000.000 0.000 0.648
86 1433.34 2000.00 67 346 212 0.425 2000.000 0.000 0.425 3000.000 0.000 0.648
87 1450.00 2000.00 71 338 184 0.425 2000.000 0.000 0.425 3000.000 0.000 0.648
88 1466.67 2000.00 80 314 187 0.425 2000.000 0.000 0.425 3000.000 0.000 0.648
89 1483.34 2000.00 64 329 211 0.425 2000.000 0.000 0.425 3000.000 0.000 0.648
90 1500.00 2000.00 95 328 202 0.425 2000.000 0.000 0.425 3000.000 0.000 0.648
91 1516.67 2000.00 75 309 183 0.425 2000.000 0.000 0.425 3000.000 0.000 0.648
92 1533.34 2000.00 82 309 185 0.425 2000.000 0.000 0.425 3000.000 0.000 0.648
93 1550.00 2000.00 79 290 190 0.425 2000.000 0.000 0.425 3000.000 0.000 0.648
94 1566.67 2000.00 77 315 193 0.425 2000.000 0.000 0.425 3000.000 0.000 0.648
95 1583.34 2000.00 67 326 225 0.425 2000.000 0.000 0.425 3000.000 0.000 0.648
96 1600.00 2000.00 63 340 210 0.425 2000.000 0.000 0.425 3000.000 0.000 0.648
97 1616.67 2000.00 81 344 203 0.425 2000.000 0.000 0.425 3000.000 0.000 0.648
98 1633.34 2000.00 91 347 213 0.425 2000.000 0.000 0.425 3000.000 0.000 0.648
99 1650.00 2000.00 85 333 193 0.425 2000.000 0.000 0.425 3000.000 0.000 0.648
100 1666.67 2000.00 85 317 180 0.425 2000.000 0.000 0.425 3000.000 0.000 0.648
101 1683.34 2000.00 72 288 188 0.425 2000.000 0.000 0.425 3000.000 0.000 0.648
102 1700.00 2000.00 92 323 193 0.425 2000.000 0.000 0.425 3000.000 0.000 0.648
103 1716.67 2000.00 69 324 190 0.425 2000.000 0.000 0.425 3000.000 0.000 0.648
104 1733.34 2000.00 81 306 212 0.425 2000.000 0.000 0.425 3000.000 0.000 0.648
105 1750.00 2000.00 78 312 200 0.425 2000.000 0.000 0.425 3000.000 0.000 0.648
106 1766.67 2000.00 82 325 193 0.425 2000.000 0.000 0.425 3000.000 0.000 0.648
107 1783.34 2000.00 64 295 214 0.425 2000.000 0.000 0.425 3000.000 0.000 0.648
108 1800.00 2000.00 73 300 194 0.425 2000.000 0.000 0.425 3000.000 0.000 0.648
109 1816.67 2000.00 71 321 192 0.425 2000.000 0.000 0.425 3000.000 0.000 0.648
110 1833.34 2000.00 87 324 187 0.425 2000.000 0.000 0.425 3000.000 0.000 0.648
111 1850.00 2000.00 86 321 187 0.425 2000.000 0.000 0.425 3000.000 0.000 0.648
112 1866.67 2000.00 85 338 196 0.425 2000.000 0.000 0.425 3000.000 0.000 0.648
113 1883.34 2000.00 75 291 200 0.425 2000.000 0.000 0.425 3000.000 0.000 0.648
114 1900.00 2000.00 67 324 193 0.425 2000.000 0.000 0.425 3000.000 0.000 0.648
115 1916.67 2000.00 86 303 231 0.425 2000.000 0.000 0.425 3000.000 0.000 0.648
116 1933.34 2000.00 81 337 209 0.425 2000.000 0.000 0.425 3000.000 0.000 0.648
117 1950.00 2000.00 80 335 212 0.425 2000.000 0.000 0.425 3000.000 0.000 0.648
118 1966.67 2000.00 59 346 198 0.425 2000.000 0.000 0.425 3000.000 0.000 0.648
119 1983.34 2000.00 77 326 197 0.425 2000.000 0.000 0.425 3000.000 0.000 0.648
