# BinNR microsec tot-time (s)  O-Beam H-beam AUX Ampl1(V) f1(Hz) phase1(deg) Ampl1(V) f1(Hz) phase1(deg) chi(pos)
0 0.00 2000.00 43 417 148 0.425 2000.000 0.000 0.425 3000.000 0.000 -0.934
1 16.67 2000.00 50 449 125 0.425 2000.000 0.000 0.425 3000.000 0.000 -0.934
2 33.33 2000.00 57 449 128 0.425 2000.000 0.000 0.425 3000.000 0.000 -0.934
3 50.00 2000.00 62 460 126 0.425 2000.000 0.000 0.425 3000.000 0.000 -0.934
4 66.67 2000.00 66 460 136 0.425 2000.000 0.000 0.425 3000.000 0.000 -0.934
5 83.33 2000.00 72 446 157 0.425 2000.000 0.000 0.425 3000.000 0.000 -0.934
6 100.00 2000.00 56 442 136 0.425 2000.000 0.000 0.425 3000.000 0.000 -0.934
7 116.67 2000.00 51 482 134 0.425 2000.000 0.000 0.425 3000.000 0.000 -0.934
8 133.33 2000.00 56 473 149 0.425 2000.000 0.000 0.425 3000.000 0.000 -0.934
9 150.00 2000.00 39 458 137 0.425 2000.000 0.000 0.425 3000.000 0.000 -0.934
10 166.67 2000.00 37 440 119 0.425 2000.000 0.000 0.425 3000.000 0.000 -0.934
11 183.33 2000.00 49 419 134 0.425 2000.000 0.000 0.425 3000.000 0.000 -0.934
12 200.00 2000.00 61 426 135 0.425 2000.000 0.000 0.425 3000.000 0.000 -0.934
13 216.67 2000.00 49 421 132 0.425 2000.000 0.000 0.425 3000.000 0.000 -0.934
14 233.33 2000.00 52 376 128 0.425 2000.000 0.000 0.425 3000.000 0.000 -0.934
15 250.00 2000.00 50 391 127 0.425 2000.000 0.000 0.425 3000.000 0.000 -0.934
16 266.67 2000.00 48 449 126 0.425 2000.000 0.000 0.425 3000.000 0.000 -0.934
17 283.33 2000.00 47 439 138 0.425 2000.000 0.000 0.425 3000.000 0.000 -0.934
18 300.00 2000.00 42 419 126 0.425 2000.000 0.000 0.425 3000.000 0.000 -0.934
19 316.67 2000.00 67 453 126 0.425 2000.000 0.000 0.425 3000.000 0.000 -0.934
20 333.33 2000.00 62 428 155 0.425 2000.000 0.000 0.425 3000.000 0.000 -0.934
21 350.00 2000.00 67 389 163 0.425 2000.000 0.000 0.425 3000.000 0.000 -0.934
22 366.67 2000.00 64 420 134 0.425 2000.000 0.000 0.425 3000.000 0.000 -0.934
23 383.33 2000.00 67 434 159 0.425 2000.000 0.000 0.425 3000.000 0.000 -0.934
24 400.00 2000.00 66 424 123 0.425 2000.000 0.000 0.425 3000.000 0.000 -0.934
25 416.67 2000.00 69 363 125 0.425 2000.000 0.000 0.425 3000.000 0.000 -0.934
26 433.33 2000.00 66 419 121 0.425 2000.000 0.000 0.425 3000.000 0.000 -0.934
27 450.00 2000.00 72 390 139 0.425 2000.000 0.000 0.425 3000.000 0.000 -0.934
28 466.67 2000.00 55 420 107 0.425 2000.000 0.000 0.425 3000.000 0.000 -0.934
29 483.33 2000.00 57 384 119 0.425 2000.000 0.000 0.425 3000.000 0.000 -0.934
30 500.00 2000.00 47 431 113 0.425 2000.000 0.000 0.425 3000.000 0.000 -0.934
31 516.67 2000.00 49 412 113 0.425 2000.000 0.000 0.425 3000.000 0.000 -0.934
32 533.33 2000.00 50 431 104 0.425 2000.000 0.000 0.425 3000.000 0.000 -0.934
33 550.00 2000.00 58 407 129 0.425 2000.000 0.000 0.425 3000.000 0.000 -0.934
34 566.67 2000.00 53 382 120 0.425 2000.000 0.000 0.425 3000.000 0.000 -0.934
35 583.33 2000.00 53 452 129 0.425 2000.000 0.000 0.425 3000.000 0.000 -0.934
36 600.00 2000.00 41 449 129 0.425 2000.000 0.000 0.425 3000.000 0.000 -0.934
37 616.67 2000.00 36 415 142 0.425 2000.000 0.000 0.425 3000.000 0.000 -0.934
38 633.33 2000.00 48 392 163 0.425 2000.000 0.000 0.425 3000.000 0.000 -0.934
39 650.00 2000.00 51 431 140 0.425 2000.000 0.000 0.425 3000.000 0.000 -0.934
40 666.67 2000.00 48 470 167 0.425 2000.000 0.000 0.425 3000.000 0.000 -0.934
41 683.33 2000.00 55 477 148 0.425 2000.000 0.000 0.425 3000.000 0.000 -0.934
42 700.00 2000.00 59 448 168 0.425 2000.000 0.000 0.425 3000.000 0.000 -0.934
43 716.67 2000.00 54 448 167 0.425 2000.000 0.000 0.425 3000.000 0.000 -0.934
44 733.33 2000.00 55 433 167 0.425 2000.000 0.000 0.425 3000.000 0.000 -0.934
45 750.00 2000.00 58 458 134 0.425 2000.000 0.000 0.425 3000.000 0.000 -0.934
46 766.67 2000.00 53 459 147 0.425 2000.000 0.000 0.425 3000.000 0.000 -0.934
47 783.33 2000.00 53 429 146 0.425 2000.000 0.000 0.425 3000.000 0.000 -0.934
48 800.00 2000.00 58 440 114 0.425 2000.000 0.000 0.425 3000.000 0.000 -0.934
49 816.67 2000.00 54 396 133 0.425 2000.000 0.000 0.425 3000.000 0.000 -0.934
50 833.34 2000.00 59 431 128 0.425 2000.000 0.000 0.425 3000.000 0.000 -0.934
51 850.00 2000.00 57 379 103 0.425 2000.000 0.000 0.425 3000.000 0.000 -0.934
52 866.67 2000.00 52 403 89 0.425 2000.000 0.000 0.425 3000.000 0.000 -0.934
53 883.34 2000.00 60 366 117 0.425 2000.000 0.000 0.425 3000.000 0.000 -0.934
54 900.00 2000.00 55 363 108 0.425 2000.000 0.000 0.425 3000.000 0.000 -0.934
55 916.67 2000.00 44 369 120 0.425 2000.000 0.000 0.425 3000.000 0.000 -0.934
56 933.34 2000.00 54 403 108 0.425 2000.000 0.000 0.425 3000.000 0.000 -0.934
57 950.00 2000.00 52 379 128 0.425 2000.000 0.000 0.425 3000.000 0.000 -0.934
58 966.67 2000.00 56 389 132 0.425 2000.000 0.000 0.425 3000.000 0.000 -0.934
59 983.34 2000.00 61 437 124 0.425 2000.000 0.000 0.425 3000.000 0.000 -0.934
60 1000.00 2000.00 57 410 129 0.425 2000.000 0.000 0.425 3000.000 0.000 -0.934
61 1016.67 2000.00 55 432 149 0.425 2000.000 0.000 0.425 3000.000 0.000 -0.934
62 1033.34 2000.00 60 465 142 0.425 2000.000 0.000 0.425 3000.000 0.000 -0.934
63 1050.00 2000.00 47 466 155 0.425 2000.000 0.000 0.425 3000.000 0.000 -0.934
64 1066.67 2000.00 46 462 140 0.425 2000.000 0.000 0.425 3000.000 0.000 -0.934
65 1083.34 2000.00 59 448 151 0.425 2000.000 0.000 0.425 3000.000 0.000 -0.934
66 1100.00 2000.00 63 443 163 0.425 2000.000 0.000 0.425 3000.000 0.000 -0.934
67 1116.67 2000.00 36 484 133 0.425 2000.000 0.000 0.425 3000.000 0.000 -0.934
68 1133.34 2000.00 56 460 138 0.425 2000.000 0.000 0.425 3000.000 0.000 -0.934
69 1150.00 2000.00 55 441 121 0.425 2000.000 0.000 0.425 3000.000 0.000 -0.934
70 1166.67 2000.00 56 421 109 0.425 2000.000 0.000 0.425 3000.000 0.000 -0.934
71 1183.34 2000.00 39 421 133 0.425 2000.000 0.000 0.425 3000.000 0.000 -0.934
72 1200.00 2000.00 38 429 129 0.425 2000.000 0.000 0.425 3000.000 0.000 -0.934
73 1216.67 2000.00 41 397 153 0.425 2000.000 0.000 0.425 3000.000 0.000 -0.934
74 1233.34 2000.00 46 442 157 0.425 2000.000 0.000 0.425 3000.000 0.000 -0.934
75 1250.00 2000.00 36 398 144 0.425 2000.000 0.000 0.425 3000.000 0.000 -0.934
76 1266.67 2000.00 59 428 131 0.425 2000.000 0.000 0.425 3000.000 0.000 -0.934
77 1283.34 2000.00 52 427 146 0.425 2000.000 0.000 0.425 3000.000 0.000 -0.934
78 1300.00 2000.00 68 381 124 0.425 2000.000 0.000 0.425 3000.000 0.000 -0.934
79 1316.67 2000.00 60 395 137 0.425 2000.000 0.000 0.425 3000.000 0.000 -0.934
80 1333.34 2000.00 58 380 164 0.425 2000.000 0.000 0.425 3000.000 0.000 -0.934
81 1350.00 2000.00 57 421 149 0.425 2000.000 0.000 0.425 3000.000 0.000 -0.934
82 1366.67 2000.00 69 420 129 0.425 2000.000 0.000 0.425 3000.000 0.000 -0.934
83 1383.34 2000.00 62 448 144 0.425 2000.000 0.000 0.425 3000.000 0.000 -0.934
84 1400.00 2000.00 81 432 144 0.425 2000.000 0.000 0.425 3000.000 0.000 -0.934
85 1416.67 2000.00 61 418 135 0.425 2000.000 0.000 0.425 3000.000 0.000 -0.934
86 1433.34 2000.00 48 460 128 0.425 2000.000 0.000 0.425 3000.000 0.000 -0.934
87 1450.00 2000.00 56 431 127 0.425 2000.000 0.000 0.425 3000.000 0.000 -0.934
88 1466.67 2000.00 62 428 103 0.425 2000.000 0.000 0.425 3000.000 0.000 -0.934
89 1483.34 2000.00 57 428 102 0.425 2000.000 0.000 0.425 3000.000 0.000 -0.934
90 1500.00 2000.00 56 413 120 0.425 2000.000 0.000 0.425 3000.000 0.000 -0.934
91 1516.67 2000.00 60 425 131 0.425 2000.000 0.000 0.425 3000.000 0.000 -0.934
92 1533.34 2000.00 57 431 105 0.425 2000.000 0.000 0.425 3000.000 0.000 -0.934
93 1550.00 2000.00 51 367 128 0.425 2000.000 0.000 0.425 3000.000 0.000 -0.934
94 1566.67 2000.00 45 423 119 0.425 2000.000 0.000 0.425 3000.000 0.000 -0.934
95 1583.34 2000.00 37 433 113 0.425 2000.000 0.000 0.425 3000.000 0.000 -0.934
96 1600.00 2000.00 60 356 119 0.425 2000.000 0.000 0.425 3000.000 0.000 -0.934
97 1616.67 2000.00 47 419 140 0.425 2000.000 0.000 0.425 3000.000 0.000 -0.934
98 1633.34 2000.00 50 422 173 0.425 2000.000 0.000 0.425 3000.000 0.000 -0.934
99 1650.00 2000.00 42 449 140 0.425 2000.000 0.000 0.425 3000.000 0.000 -0.934
100 1666.67 2000.00 51 469 188 0.425 2000.000 0.000 0.425 3000.000 0.000 -0.934
101 1683.34 2000.00 56 453 175 0.425 2000.000 0.000 0.425 3000.000 0.000 -0.934
102 1700.00 2000.00 62 467 176 0.425 2000.000 0.000 0.425 3000.000 0.000 -0.934
103 1716.67 2000.00 58 512 142 0.425 2000.000 0.000 0.425 3000.000 0.000 -0.934
104 1733.34 2000.00 62 470 172 0.425 2000.000 0.000 0.425 3000.000 0.000 -0.934
105 1750.00 2000.00 55 477 153 0.425 2000.000 0.000 0.425 3000.000 0.000 -0.934
106 1766.67 2000.00 65 429 125 0.425 2000.000 0.000 0.425 3000.000 0.000 -0.934
107 1783.34 2000.00 55 453 114 0.425 2000.000 0.000 0.425 3000.000 0.000 -0.934
108 1800.00 2000.00 67 477 115 0.425 2000.000 0.000 0.425 3000.000 0.000 -0.934
109 1816.67 2000.00 59 447 128 0.425 2000.000 0.000 0.425 3000.000 0.000 -0.934
110 1833.34 2000.00 54 407 117 0.425 2000.000 0.000 0.425 3000.000 0.000 -0.934
111 1850.00 2000.00 68 374 117 0.425 2000.000 0.000 0.425 3000.000 0.000 -0.934
112 1866.67 2000.00 46 398 110 0.425 2000.000 0.000 0.425 3000.000 0.000 -0.934
113 1883.34 2000.00 47 364 122 0.425 2000.000 0.000 0.425 3000.000 0.000 -0.934
114 1900.00 2000.00 52 407 118 0.425 2000.000 0.000 0.425 3000.000 0.000 -0.934
115 1916.67 2000.00 58 414 115 0.425 2000.000 0.000 0.425 3000.000 0.000 -0.934
116 1933.34 2000.00 53 381 112 0.425 2000.000 0.000 0.425 3000.000 0.000 -0.934
117 1950.00 2000.00 59 388 118 0.425 2000.000 0.000 0.425 3000.000 0.000 -0.934
118 1966.67 2000.00 62 397 134 0.425 2000.000 0.000 0.425 3000.000 0.000 -0.934
119 1983.34 2000.00 50 375 127 0.425 2000.000 0.000 0.425 3000.000 0.000 -0.934
