# BinNR microsec tot-time (s)  O-Beam H-beam AUX Ampl1(V) f1(Hz) phase1(deg) Ampl1(V) f1(Hz) phase1(deg) chi(pos)
0 0.00 2000.00 78 316 197 0.425 2000.000 0.000 0.425 3000.000 0.000 -1.351
1 16.67 2000.00 75 344 199 0.425 2000.000 0.000 0.425 3000.000 0.000 -1.351
2 33.33 2000.00 101 329 177 0.425 2000.000 0.000 0.425 3000.000 0.000 -1.351
3 50.00 2000.00 84 325 184 0.425 2000.000 0.000 0.425 3000.000 0.000 -1.351
4 66.67 2000.00 82 324 193 0.425 2000.000 0.000 0.425 3000.000 0.000 -1.351
5 83.33 2000.00 72 368 195 0.425 2000.000 0.000 0.425 3000.000 0.000 -1.351
6 100.00 2000.00 77 356 182 0.425 2000.000 0.000 0.425 3000.000 0.000 -1.351
7 116.67 2000.00 77 336 204 0.425 2000.000 0.000 0.425 3000.000 0.000 -1.351
8 133.33 2000.00 78 335 212 0.425 2000.000 0.000 0.425 3000.000 0.000 -1.351
9 150.00 2000.00 72 344 198 0.425 2000.000 0.000 0.425 3000.000 0.000 -1.351
10 166.67 2000.00 68 342 184 0.425 2000.000 0.000 0.425 3000.000 0.000 -1.351
11 183.33 2000.00 84 313 187 0.425 2000.000 0.000 0.425 3000.000 0.000 -1.351
12 200.00 2000.00 70 343 210 0.425 2000.000 0.000 0.425 3000.000 0.000 -1.351
13 216.67 2000.00 56 305 208 0.425 2000.000 0.000 0.425 3000.000 0.000 -1.351
14 233.33 2000.00 73 328 204 0.425 2000.000 0.000 0.425 3000.000 0.000 -1.351
15 250.00 2000.00 68 322 201 0.425 2000.000 0.000 0.425 3000.000 0.000 -1.351
16 266.67 2000.00 69 338 222 0.425 2000.000 0.000 0.425 3000.000 0.000 -1.351
17 283.33 2000.00 71 308 185 0.425 2000.000 0.000 0.425 3000.000 0.000 -1.351
18 300.00 2000.00 71 284 186 0.425 2000.000 0.000 0.425 3000.000 0.000 -1.351
19 316.67 2000.00 79 328 224 0.425 2000.000 0.000 0.425 3000.000 0.000 -1.351
20 333.33 2000.00 80 312 202 0.425 2000.000 0.000 0.425 3000.000 0.000 -1.351
21 350.00 2000.00 73 310 172 0.425 2000.000 0.000 0.425 3000.000 0.000 -1.351
22 366.67 2000.00 67 332 177 0.425 2000.000 0.000 0.425 3000.000 0.000 -1.351
23 383.33 2000.00 88 301 188 0.425 2000.000 0.000 0.425 3000.000 0.000 -1.351
24 400.00 2000.00 76 342 172 0.425 2000.000 0.000 0.425 3000.000 0.000 -1.351
25 416.67 2000.00 79 341 196 0.425 2000.000 0.000 0.425 3000.000 0.000 -1.351
26 433.33 2000.00 62 333 186 0.425 2000.000 0.000 0.425 3000.000 0.000 -1.351
27 450.00 2000.00 81 326 242 0.425 2000.000 0.000 0.425 3000.000 0.000 -1.351
28 466.67 2000.00 80 322 213 0.425 2000.000 0.000 0.425 3000.000 0.000 -1.351
29 483.33 2000.00 86 354 191 0.425 2000.000 0.000 0.425 3000.000 0.000 -1.351
30 500.00 2000.00 68 322 177 0.425 2000.000 0.000 0.425 3000.000 0.000 -1.351
31 516.67 2000.00 65 321 181 0.425 2000.000 0.000 0.425 3000.000 0.000 -1.351
32 533.33 2000.00 92 299 186 0.425 2000.000 0.000 0.425 3000.000 0.000 -1.351
33 550.00 2000.00 82 293 180 0.425 2000.000 0.000 0.425 3000.000 0.000 -1.351
34 566.67 2000.00 82 329 191 0.425 2000.000 0.000 0.425 3000.000 0.000 -1.351
35 583.33 2000.00 67 308 209 0.425 2000.000 0.000 0.425 3000.000 0.000 -1.351
36 600.00 2000.00 92 325 196 0.425 2000.000 0.000 0.425 3000.000 0.000 -1.351
37 616.67 2000.00 90 318 224 0.425 2000.000 0.000 0.425 3000.000 0.000 -1.351
38 633.33 2000.00 63 308 176 0.425 2000.000 0.000 0.425 3000.000 0.000 -1.351
39 650.00 2000.00 56 339 201 0.425 2000.000 0.000 0.425 3000.000 0.000 -1.351
40 666.67 2000.00 90 333 183 0.425 2000.000 0.000 0.425 3000.000 0.000 -1.351
41 683.33 2000.00 72 334 187 0.425 2000.000 0.000 0.425 3000.000 0.000 -1.351
42 700.00 2000.00 84 345 200 0.425 2000.000 0.000 0.425 3000.000 0.000 -1.351
43 716.67 2000.00 91 339 200 0.425 2000.000 0.000 0.425 3000.000 0.000 -1.351
44 733.33 2000.00 83 354 195 0.425 2000.000 0.000 0.425 3000.000 0.000 -1.351
45 750.00 2000.00 73 363 210 0.425 2000.000 0.000 0.425 3000.000 0.000 -1.351
46 766.67 2000.00 68 352 209 0.425 2000.000 0.000 0.425 3000.000 0.000 -1.351
47 783.33 2000.00 76 344 192 0.425 2000.000 0.000 0.425 3000.000 0.000 -1.351
48 800.00 2000.00 82 317 227 0.425 2000.000 0.000 0.425 3000.000 0.000 -1.351
49 816.67 2000.00 85 315 169 0.425 2000.000 0.000 0.425 3000.000 0.000 -1.351
50 833.34 2000.00 82 305 214 0.425 2000.000 0.000 0.425 3000.000 0.000 -1.351
51 850.00 2000.00 84 321 209 0.425 2000.000 0.000 0.425 3000.000 0.000 -1.351
52 866.67 2000.00 80 355 190 0.425 2000.000 0.000 0.425 3000.000 0.000 -1.351
53 883.34 2000.00 76 330 175 0.425 2000.000 0.000 0.425 3000.000 0.000 -1.351
54 900.00 2000.00 72 324 186 0.425 2000.000 0.000 0.425 3000.000 0.000 -1.351
55 916.67 2000.00 76 348 194 0.425 2000.000 0.000 0.425 3000.000 0.000 -1.351
56 933.34 2000.00 80 298 212 0.425 2000.000 0.000 0.425 3000.000 0.000 -1.351
57 950.00 2000.00 74 320 189 0.425 2000.000 0.000 0.425 3000.000 0.000 -1.351
58 966.67 2000.00 76 286 191 0.425 2000.000 0.000 0.425 3000.000 0.000 -1.351
59 983.34 2000.00 69 327 182 0.425 2000.000 0.000 0.425 3000.000 0.000 -1.351
60 1000.00 2000.00 75 318 194 0.425 2000.000 0.000 0.425 3000.000 0.000 -1.351
61 1016.67 2000.00 76 339 222 0.425 2000.000 0.000 0.425 3000.000 0.000 -1.351
62 1033.34 2000.00 85 336 183 0.425 2000.000 0.000 0.425 3000.000 0.000 -1.351
63 1050.00 2000.00 78 312 199 0.425 2000.000 0.000 0.425 3000.000 0.000 -1.351
64 1066.67 2000.00 76 307 205 0.425 2000.000 0.000 0.425 3000.000 0.000 -1.351
65 1083.34 2000.00 64 326 204 0.425 2000.000 0.000 0.425 3000.000 0.000 -1.351
66 1100.00 2000.00 78 311 178 0.425 2000.000 0.000 0.425 3000.000 0.000 -1.351
67 1116.67 2000.00 59 335 197 0.425 2000.000 0.000 0.425 3000.000 0.000 -1.351
68 1133.34 2000.00 80 350 204 0.425 2000.000 0.000 0.425 3000.000 0.000 -1.351
69 1150.00 2000.00 81 342 189 0.425 2000.000 0.000 0.425 3000.000 0.000 -1.351
70 1166.67 2000.00 70 354 222 0.425 2000.000 0.000 0.425 3000.000 0.000 -1.351
71 1183.34 2000.00 64 325 189 0.425 2000.000 0.000 0.425 3000.000 0.000 -1.351
72 1200.00 2000.00 74 336 193 0.425 2000.000 0.000 0.425 3000.000 0.000 -1.351
73 1216.67 2000.00 80 319 231 0.425 2000.000 0.000 0.425 3000.000 0.000 -1.351
74 1233.34 2000.00 65 331 197 0.425 2000.000 0.000 0.425 3000.000 0.000 -1.351
75 1250.00 2000.00 91 312 195 0.425 2000.000 0.000 0.425 3000.000 0.000 -1.351
76 1266.67 2000.00 80 317 230 0.425 2000.000 0.000 0.425 3000.000 0.000 -1.351
77 1283.34 2000.00 85 370 212 0.425 2000.000 0.000 0.425 3000.000 0.000 -1.351
78 1300.00 2000.00 90 322 213 0.425 2000.000 0.000 0.425 3000.000 0.000 -1.351
79 1316.67 2000.00 82 280 212 0.425 2000.000 0.000 0.425 3000.000 0.000 -1.351
80 1333.34 2000.00 68 348 219 0.425 2000.000 0.000 0.425 3000.000 0.000 -1.351
81 1350.00 2000.00 66 341 194 0.425 2000.000 0.000 0.425 3000.000 0.000 -1.351
82 1366.67 2000.00 63 312 198 0.425 2000.000 0.000 0.425 3000.000 0.000 -1.351
83 1383.34 2000.00 76 295 189 0.425 2000.000 0.000 0.425 3000.000 0.000 -1.351
84 1400.00 2000.00 74 333 177 0.425 2000.000 0.000 0.425 3000.000 0.000 -1.351
85 1416.67 2000.00 68 340 199 0.425 2000.000 0.000 0.425 3000.000 0.000 -1.351
86 1433.34 2000.00 78 306 197 0.425 2000.000 0.000 0.425 3000.000 0.000 -1.351
87 1450.00 2000.00 76 326 199 0.425 2000.000 0.000 0.425 3000.000 0.000 -1.351
88 1466.67 2000.00 61 311 196 0.425 2000.000 0.000 0.425 3000.000 0.000 -1.351
89 1483.34 2000.00 70 343 205 0.425 2000.000 0.000 0.425 3000.000 0.000 -1.351
90 1500.00 2000.00 74 299 212 0.425 2000.000 0.000 0.425 3000.000 0.000 -1.351
91 1516.67 2000.00 83 300 221 0.425 2000.000 0.000 0.425 3000.000 0.000 -1.351
92 1533.34 2000.00 86 326 225 0.425 2000.000 0.000 0.425 3000.000 0.000 -1.351
93 1550.00 2000.00 74 332 175 0.425 2000.000 0.000 0.425 3000.000 0.000 -1.351
94 1566.67 2000.00 76 300 199 0.425 2000.000 0.000 0.425 3000.000 0.000 -1.351
95 1583.34 2000.00 84 308 210 0.425 2000.000 0.000 0.425 3000.000 0.000 -1.351
96 1600.00 2000.00 85 360 191 0.425 2000.000 0.000 0.425 3000.000 0.000 -1.351
97 1616.67 2000.00 76 335 218 0.425 2000.000 0.000 0.425 3000.000 0.000 -1.351
98 1633.34 2000.00 81 310 179 0.425 2000.000 0.000 0.425 3000.000 0.000 -1.351
99 1650.00 2000.00 99 341 190 0.425 2000.000 0.000 0.425 3000.000 0.000 -1.351
100 1666.67 2000.00 88 326 200 0.425 2000.000 0.000 0.425 3000.000 0.000 -1.351
101 1683.34 2000.00 80 336 192 0.425 2000.000 0.000 0.425 3000.000 0.000 -1.351
102 1700.00 2000.00 64 349 197 0.425 2000.000 0.000 0.425 3000.000 0.000 -1.351
103 1716.67 2000.00 73 351 196 0.425 2000.000 0.000 0.425 3000.000 0.000 -1.351
104 1733.34 2000.00 88 367 174 0.425 2000.000 0.000 0.425 3000.000 0.000 -1.351
105 1750.00 2000.00 62 353 216 0.425 2000.000 0.000 0.425 3000.000 0.000 -1.351
106 1766.67 2000.00 72 358 194 0.425 2000.000 0.000 0.425 3000.000 0.000 -1.351
107 1783.34 2000.00 75 321 207 0.425 2000.000 0.000 0.425 3000.000 0.000 -1.351
108 1800.00 2000.00 89 325 205 0.425 2000.000 0.000 0.425 3000.000 0.000 -1.351
109 1816.67 2000.00 72 319 201 0.425 2000.000 0.000 0.425 3000.000 0.000 -1.351
110 1833.34 2000.00 95 340 191 0.425 2000.000 0.000 0.425 3000.000 0.000 -1.351
111 1850.00 2000.00 70 314 172 0.425 2000.000 0.000 0.425 3000.000 0.000 -1.351
112 1866.67 2000.00 77 317 190 0.425 2000.000 0.000 0.425 3000.000 0.000 -1.351
113 1883.34 2000.00 80 339 180 0.425 2000.000 0.000 0.425 3000.000 0.000 -1.351
114 1900.00 2000.00 74 313 202 0.425 2000.000 0.000 0.425 3000.000 0.000 -1.351
115 1916.67 2000.00 76 311 170 0.425 2000.000 0.000 0.425 3000.000 0.000 -1.351
116 1933.34 2000.00 84 317 184 0.425 2000.000 0.000 0.425 3000.000 0.000 -1.351
117 1950.00 2000.00 79 328 205 0.425 2000.000 0.000 0.425 3000.000 0.000 -1.351
118 1966.67 2000.00 66 354 214 0.425 2000.000 0.000 0.425 3000.000 0.000 -1.351
119 1983.34 2000.00 57 283 177 0.425 2000.000 0.000 0.425 3000.000 0.000 -1.351
