# BinNR microsec tot-time (s)  O-Beam H-beam AUX Ampl1(V) f1(Hz) phase1(deg) Ampl1(V) f1(Hz) phase1(deg) chi(pos)
0 0.00 2000.00 75 325 211 0.425 2000.000 0.000 0.425 3000.000 0.000 0.791
1 16.67 2000.00 82 329 196 0.425 2000.000 0.000 0.425 3000.000 0.000 0.791
2 33.33 2000.00 82 357 228 0.425 2000.000 0.000 0.425 3000.000 0.000 0.791
3 50.00 2000.00 79 339 181 0.425 2000.000 0.000 0.425 3000.000 0.000 0.791
4 66.67 2000.00 80 351 224 0.425 2000.000 0.000 0.425 3000.000 0.000 0.791
5 83.33 2000.00 69 363 196 0.425 2000.000 0.000 0.425 3000.000 0.000 0.791
6 100.00 2000.00 70 326 217 0.425 2000.000 0.000 0.425 3000.000 0.000 0.791
7 116.67 2000.00 71 355 200 0.425 2000.000 0.000 0.425 3000.000 0.000 0.791
8 133.33 2000.00 72 346 187 0.425 2000.000 0.000 0.425 3000.000 0.000 0.791
9 150.00 2000.00 73 326 184 0.425 2000.000 0.000 0.425 3000.000 0.000 0.791
10 166.67 2000.00 79 335 202 0.425 2000.000 0.000 0.425 3000.000 0.000 0.791
11 183.33 2000.00 79 347 185 0.425 2000.000 0.000 0.425 3000.000 0.000 0.791
12 200.00 2000.00 71 366 184 0.425 2000.000 0.000 0.425 3000.000 0.000 0.791
13 216.67 2000.00 77 325 205 0.425 2000.000 0.000 0.425 3000.000 0.000 0.791
14 233.33 2000.00 99 354 195 0.425 2000.000 0.000 0.425 3000.000 0.000 0.791
15 250.00 2000.00 73 324 216 0.425 2000.000 0.000 0.425 3000.000 0.000 0.791
16 266.67 2000.00 80 309 195 0.425 2000.000 0.000 0.425 3000.000 0.000 0.791
17 283.33 2000.00 78 306 200 0.425 2000.000 0.000 0.425 3000.000 0.000 0.791
18 300.00 2000.00 77 306 189 0.425 2000.000 0.000 0.425 3000.000 0.000 0.791
19 316.67 2000.00 72 333 215 0.425 2000.000 0.000 0.425 3000.000 0.000 0.791
20 333.33 2000.00 68 301 211 0.425 2000.000 0.000 0.425 3000.000 0.000 0.791
21 350.00 2000.00 77 341 184 0.425 2000.000 0.000 0.425 3000.000 0.000 0.791
22 366.67 2000.00 59 338 200 0.425 2000.000 0.000 0.425 3000.000 0.000 0.791
23 383.33 2000.00 68 337 178 0.425 2000.000 0.000 0.425 3000.000 0.000 0.791
24 400.00 2000.00 72 326 213 0.425 2000.000 0.000 0.425 3000.000 0.000 0.791
25 416.67 2000.00 97 330 186 0.425 2000.000 0.000 0.425 3000.000 0.000 0.791
26 433.33 2000.00 62 339 190 0.425 2000.000 0.000 0.425 3000.000 0.000 0.791
27 450.00 2000.00 98 328 179 0.425 2000.000 0.000 0.425 3000.000 0.000 0.791
28 466.67 2000.00 87 366 175 0.425 2000.000 0.000 0.425 3000.000 0.000 0.791
29 483.33 2000.00 85 285 179 0.425 2000.000 0.000 0.425 3000.000 0.000 0.791
30 500.00 2000.00 79 314 182 0.425 2000.000 0.000 0.425 3000.000 0.000 0.791
31 516.67 2000.00 72 325 178 0.425 2000.000 0.000 0.425 3000.000 0.000 0.791
32 533.33 2000.00 74 345 184 0.425 2000.000 0.000 0.425 3000.000 0.000 0.791
33 550.00 2000.00 74 346 223 0.425 2000.000 0.000 0.425 3000.000 0.000 0.791
34 566.67 2000.00 70 327 172 0.425 2000.000 0.000 0.425 3000.000 0.000 0.791
35 583.33 2000.00 83 335 193 0.425 2000.000 0.000 0.425 3000.000 0.000 0.791
36 600.00 2000.00 65 331 176 0.425 2000.000 0.000 0.425 3000.000 0.000 0.791
37 616.67 2000.00 76 328 182 0.425 2000.000 0.000 0.425 3000.000 0.000 0.791
38 633.33 2000.00 69 333 191 0.425 2000.000 0.000 0.425 3000.000 0.000 0.791
39 650.00 2000.00 63 303 201 0.425 2000.000 0.000 0.425 3000.000 0.000 0.791
40 666.67 2000.00 77 357 219 0.425 2000.000 0.000 0.425 3000.000 0.000 0.791
41 683.33 2000.00 63 340 212 0.425 2000.000 0.000 0.425 3000.000 0.000 0.791
42 700.00 2000.00 88 366 208 0.425 2000.000 0.000 0.425 3000.000 0.000 0.791
43 716.67 2000.00 75 330 196 0.425 2000.000 0.000 0.425 3000.000 0.000 0.791
44 733.33 2000.00 86 316 195 0.425 2000.000 0.000 0.425 3000.000 0.000 0.791
45 750.00 2000.00 79 342 198 0.425 2000.000 0.000 0.425 3000.000 0.000 0.791
46 766.67 2000.00 84 360 187 0.425 2000.000 0.000 0.425 3000.000 0.000 0.791
47 783.33 2000.00 81 320 192 0.425 2000.000 0.000 0.425 3000.000 0.000 0.791
48 800.00 2000.00 85 307 220 0.425 2000.000 0.000 0.425 3000.000 0.000 0.791
49 816.67 2000.00 85 303 205 0.425 2000.000 0.000 0.425 3000.000 0.000 0.791
50 833.34 2000.00 60 339 189 0.425 2000.000 0.000 0.425 3000.000 0.000 0.791
51 850.00 2000.00 104 297 205 0.425 2000.000 0.000 0.425 3000.000 0.000 0.791
52 866.67 2000.00 80 323 196 0.425 2000.000 0.000 0.425 3000.000 0.000 0.791
53 883.34 2000.00 92 308 204 0.425 2000.000 0.000 0.425 3000.000 0.000 0.791
54 900.00 2000.00 70 325 186 0.425 2000.000 0.000 0.425 3000.000 0.000 0.791
55 916.67 2000.00 72 325 165 0.425 2000.000 0.000 0.425 3000.000 0.000 0.791
56 933.34 2000.00 72 324 204 0.425 2000.000 0.000 0.425 3000.000 0.000 0.791
57 950.00 2000.00 78 315 217 0.425 2000.000 0.000 0.425 3000.000 0.000 0.791
58 966.67 2000.00 88 321 218 0.425 2000.000 0.000 0.425 3000.000 0.000 0.791
59 983.34 2000.00 74 338 218 0.425 2000.000 0.000 0.425 3000.000 0.000 0.791
60 1000.00 2000.00 80 302 203 0.425 2000.000 0.000 0.425 3000.000 0.000 0.791
61 1016.67 2000.00 68 338 214 0.425 2000.000 0.000 0.425 3000.000 0.000 0.791
62 1033.34 2000.00 81 337 173 0.425 2000.000 0.000 0.425 3000.000 0.000 0.791
63 1050.00 2000.00 78 361 202 0.425 2000.000 0.000 0.425 3000.000 0.000 0.791
64 1066.67 2000.00 81 336 195 0.425 2000.000 0.000 0.425 3000.000 0.000 0.791
65 1083.34 2000.00 89 362 194 0.425 2000.000 0.000 0.425 3000.000 0.000 0.791
66 1100.00 2000.00 58 342 203 0.425 2000.000 0.000 0.425 3000.000 0.000 0.791
67 1116.67 2000.00 75 300 183 0.425 2000.000 0.000 0.425 3000.000 0.000 0.791
68 1133.34 2000.00 77 356 209 0.425 2000.000 0.000 0.425 3000.000 0.000 0.791
69 1150.00 2000.00 89 358 183 0.425 2000.000 0.000 0.425 3000.000 0.000 0.791
70 1166.67 2000.00 69 354 168 0.425 2000.000 0.000 0.425 3000.000 0.000 0.791
71 1183.34 2000.00 73 328 215 0.425 2000.000 0.000 0.425 3000.000 0.000 0.791
72 1200.00 2000.00 57 314 209 0.425 2000.000 0.000 0.425 3000.000 0.000 0.791
73 1216.67 2000.00 88 306 200 0.425 2000.000 0.000 0.425 3000.000 0.000 0.791
74 1233.34 2000.00 74 289 196 0.425 2000.000 0.000 0.425 3000.000 0.000 0.791
75 1250.00 2000.00 95 352 188 0.425 2000.000 0.000 0.425 3000.000 0.000 0.791
76 1266.67 2000.00 66 310 190 0.425 2000.000 0.000 0.425 3000.000 0.000 0.791
77 1283.34 2000.00 64 330 181 0.425 2000.000 0.000 0.425 3000.000 0.000 0.791
78 1300.00 2000.00 74 324 198 0.425 2000.000 0.000 0.425 3000.000 0.000 0.791
79 1316.67 2000.00 77 304 190 0.425 2000.000 0.000 0.425 3000.000 0.000 0.791
80 1333.34 2000.00 97 325 187 0.425 2000.000 0.000 0.425 3000.000 0.000 0.791
81 1350.00 2000.00 95 309 199 0.425 2000.000 0.000 0.425 3000.000 0.000 0.791
82 1366.67 2000.00 82 335 181 0.425 2000.000 0.000 0.425 3000.000 0.000 0.791
83 1383.34 2000.00 56 315 213 0.425 2000.000 0.000 0.425 3000.000 0.000 0.791
84 1400.00 2000.00 87 329 170 0.425 2000.000 0.000 0.425 3000.000 0.000 0.791
85 1416.67 2000.00 74 313 193 0.425 2000.000 0.000 0.425 3000.000 0.000 0.791
86 1433.34 2000.00 85 305 179 0.425 2000.000 0.000 0.425 3000.000 0.000 0.791
87 1450.00 2000.00 78 306 195 0.425 2000.000 0.000 0.425 3000.000 0.000 0.791
88 1466.67 2000.00 67 291 176 0.425 2000.000 0.000 0.425 3000.000 0.000 0.791
89 1483.34 2000.00 89 338 184 0.425 2000.000 0.000 0.425 3000.000 0.000 0.791
90 1500.00 2000.00 72 336 169 0.425 2000.000 0.000 0.425 3000.000 0.000 0.791
91 1516.67 2000.00 83 320 183 0.425 2000.000 0.000 0.425 3000.000 0.000 0.791
92 1533.34 2000.00 59 308 217 0.425 2000.000 0.000 0.425 3000.000 0.000 0.791
93 1550.00 2000.00 93 309 196 0.425 2000.000 0.000 0.425 3000.000 0.000 0.791
94 1566.67 2000.00 88 343 203 0.425 2000.000 0.000 0.425 3000.000 0.000 0.791
95 1583.34 2000.00 79 328 186 0.425 2000.000 0.000 0.425 3000.000 0.000 0.791
96 1600.00 2000.00 79 311 203 0.425 2000.000 0.000 0.425 3000.000 0.000 0.791
97 1616.67 2000.00 73 323 222 0.425 2000.000 0.000 0.425 3000.000 0.000 0.791
98 1633.34 2000.00 74 339 209 0.425 2000.000 0.000 0.425 3000.000 0.000 0.791
99 1650.00 2000.00 73 342 175 0.425 2000.000 0.000 0.425 3000.000 0.000 0.791
100 1666.67 2000.00 59 351 202 0.425 2000.000 0.000 0.425 3000.000 0.000 0.791
101 1683.34 2000.00 77 340 227 0.425 2000.000 0.000 0.425 3000.000 0.000 0.791
102 1700.00 2000.00 84 352 215 0.425 2000.000 0.000 0.425 3000.000 0.000 0.791
103 1716.67 2000.00 88 345 192 0.425 2000.000 0.000 0.425 3000.000 0.000 0.791
104 1733.34 2000.00 66 346 248 0.425 2000.000 0.000 0.425 3000.000 0.000 0.791
105 1750.00 2000.00 70 346 217 0.425 2000.000 0.000 0.425 3000.000 0.000 0.791
106 1766.67 2000.00 84 332 197 0.425 2000.000 0.000 0.425 3000.000 0.000 0.791
107 1783.34 2000.00 77 323 198 0.425 2000.000 0.000 0.425 3000.000 0.000 0.791
108 1800.00 2000.00 84 332 194 0.425 2000.000 0.000 0.425 3000.000 0.000 0.791
109 1816.67 2000.00 76 302 189 0.425 2000.000 0.000 0.425 3000.000 0.000 0.791
110 1833.34 2000.00 78 342 195 0.425 2000.000 0.000 0.425 3000.000 0.000 0.791
111 1850.00 2000.00 82 307 181 0.425 2000.000 0.000 0.425 3000.000 0.000 0.791
112 1866.67 2000.00 76 335 187 0.425 2000.000 0.000 0.425 3000.000 0.000 0.791
113 1883.34 2000.00 82 330 187 0.425 2000.000 0.000 0.425 3000.000 0.000 0.791
114 1900.00 2000.00 70 329 168 0.425 2000.000 0.000 0.425 3000.000 0.000 0.791
115 1916.67 2000.00 83 338 178 0.425 2000.000 0.000 0.425 3000.000 0.000 0.791
116 1933.34 2000.00 74 355 190 0.425 2000.000 0.000 0.425 3000.000 0.000 0.791
117 1950.00 2000.00 75 277 186 0.425 2000.000 0.000 0.425 3000.000 0.000 0.791
118 1966.67 2000.00 77 304 175 0.425 2000.000 0.000 0.425 3000.000 0.000 0.791
119 1983.34 2000.00 89 294 185 0.425 2000.000 0.000 0.425 3000.000 0.000 0.791
