# BinNR microsec tot-time (s)  O-Beam H-beam AUX Ampl1(V) f1(Hz) phase1(deg) Ampl1(V) f1(Hz) phase1(deg) chi(pos)
0 0.00 2000.00 45 486 105 0.425 2000.000 0.000 0.425 3000.000 0.000 -0.802
1 16.67 2000.00 54 457 117 0.425 2000.000 0.000 0.425 3000.000 0.000 -0.802
2 33.33 2000.00 42 509 98 0.425 2000.000 0.000 0.425 3000.000 0.000 -0.802
3 50.00 2000.00 52 495 105 0.425 2000.000 0.000 0.425 3000.000 0.000 -0.802
4 66.67 2000.00 42 496 111 0.425 2000.000 0.000 0.425 3000.000 0.000 -0.802
5 83.33 2000.00 49 513 96 0.425 2000.000 0.000 0.425 3000.000 0.000 -0.802
6 100.00 2000.00 47 532 119 0.425 2000.000 0.000 0.425 3000.000 0.000 -0.802
7 116.67 2000.00 47 509 120 0.425 2000.000 0.000 0.425 3000.000 0.000 -0.802
8 133.33 2000.00 42 528 115 0.425 2000.000 0.000 0.425 3000.000 0.000 -0.802
9 150.00 2000.00 40 529 97 0.425 2000.000 0.000 0.425 3000.000 0.000 -0.802
10 166.67 2000.00 39 485 107 0.425 2000.000 0.000 0.425 3000.000 0.000 -0.802
11 183.33 2000.00 26 527 97 0.425 2000.000 0.000 0.425 3000.000 0.000 -0.802
12 200.00 2000.00 41 512 117 0.425 2000.000 0.000 0.425 3000.000 0.000 -0.802
13 216.67 2000.00 36 467 113 0.425 2000.000 0.000 0.425 3000.000 0.000 -0.802
14 233.33 2000.00 34 457 105 0.425 2000.000 0.000 0.425 3000.000 0.000 -0.802
15 250.00 2000.00 35 460 111 0.425 2000.000 0.000 0.425 3000.000 0.000 -0.802
16 266.67 2000.00 36 437 120 0.425 2000.000 0.000 0.425 3000.000 0.000 -0.802
17 283.33 2000.00 40 492 106 0.425 2000.000 0.000 0.425 3000.000 0.000 -0.802
18 300.00 2000.00 33 464 91 0.425 2000.000 0.000 0.425 3000.000 0.000 -0.802
19 316.67 2000.00 55 470 110 0.425 2000.000 0.000 0.425 3000.000 0.000 -0.802
20 333.33 2000.00 38 490 109 0.425 2000.000 0.000 0.425 3000.000 0.000 -0.802
21 350.00 2000.00 52 473 120 0.425 2000.000 0.000 0.425 3000.000 0.000 -0.802
22 366.67 2000.00 53 479 112 0.425 2000.000 0.000 0.425 3000.000 0.000 -0.802
23 383.33 2000.00 61 494 109 0.425 2000.000 0.000 0.425 3000.000 0.000 -0.802
24 400.00 2000.00 49 476 115 0.425 2000.000 0.000 0.425 3000.000 0.000 -0.802
25 416.67 2000.00 63 486 118 0.425 2000.000 0.000 0.425 3000.000 0.000 -0.802
26 433.33 2000.00 42 458 101 0.425 2000.000 0.000 0.425 3000.000 0.000 -0.802
27 450.00 2000.00 46 465 87 0.425 2000.000 0.000 0.425 3000.000 0.000 -0.802
28 466.67 2000.00 55 468 85 0.425 2000.000 0.000 0.425 3000.000 0.000 -0.802
29 483.33 2000.00 59 469 93 0.425 2000.000 0.000 0.425 3000.000 0.000 -0.802
30 500.00 2000.00 54 487 71 0.425 2000.000 0.000 0.425 3000.000 0.000 -0.802
31 516.67 2000.00 32 453 87 0.425 2000.000 0.000 0.425 3000.000 0.000 -0.802
32 533.33 2000.00 43 411 65 0.425 2000.000 0.000 0.425 3000.000 0.000 -0.802
33 550.00 2000.00 47 458 91 0.425 2000.000 0.000 0.425 3000.000 0.000 -0.802
34 566.67 2000.00 43 475 92 0.425 2000.000 0.000 0.425 3000.000 0.000 -0.802
35 583.33 2000.00 36 447 103 0.425 2000.000 0.000 0.425 3000.000 0.000 -0.802
36 600.00 2000.00 46 486 110 0.425 2000.000 0.000 0.425 3000.000 0.000 -0.802
37 616.67 2000.00 35 484 102 0.425 2000.000 0.000 0.425 3000.000 0.000 -0.802
38 633.33 2000.00 28 492 125 0.425 2000.000 0.000 0.425 3000.000 0.000 -0.802
39 650.00 2000.00 52 500 120 0.425 2000.000 0.000 0.425 3000.000 0.000 -0.802
40 666.67 2000.00 32 515 130 0.425 2000.000 0.000 0.425 3000.000 0.000 -0.802
41 683.33 2000.00 44 524 123 0.425 2000.000 0.000 0.425 3000.000 0.000 -0.802
42 700.00 2000.00 43 523 128 0.425 2000.000 0.000 0.425 3000.000 0.000 -0.802
43 716.67 2000.00 52 538 140 0.425 2000.000 0.000 0.425 3000.000 0.000 -0.802
44 733.33 2000.00 40 496 122 0.425 2000.000 0.000 0.425 3000.000 0.000 -0.802
45 750.00 2000.00 59 520 122 0.425 2000.000 0.000 0.425 3000.000 0.000 -0.802
46 766.67 2000.00 54 522 113 0.425 2000.000 0.000 0.425 3000.000 0.000 -0.802
47 783.33 2000.00 45 497 103 0.425 2000.000 0.000 0.425 3000.000 0.000 -0.802
48 800.00 2000.00 43 519 97 0.425 2000.000 0.000 0.425 3000.000 0.000 -0.802
49 816.67 2000.00 43 519 105 0.425 2000.000 0.000 0.425 3000.000 0.000 -0.802
50 833.34 2000.00 51 471 82 0.425 2000.000 0.000 0.425 3000.000 0.000 -0.802
51 850.00 2000.00 46 467 79 0.425 2000.000 0.000 0.425 3000.000 0.000 -0.802
52 866.67 2000.00 48 428 75 0.425 2000.000 0.000 0.425 3000.000 0.000 -0.802
53 883.34 2000.00 60 451 92 0.425 2000.000 0.000 0.425 3000.000 0.000 -0.802
54 900.00 2000.00 41 441 96 0.425 2000.000 0.000 0.425 3000.000 0.000 -0.802
55 916.67 2000.00 49 438 73 0.425 2000.000 0.000 0.425 3000.000 0.000 -0.802
56 933.34 2000.00 52 459 87 0.425 2000.000 0.000 0.425 3000.000 0.000 -0.802
57 950.00 2000.00 43 432 83 0.425 2000.000 0.000 0.425 3000.000 0.000 -0.802
58 966.67 2000.00 47 463 108 0.425 2000.000 0.000 0.425 3000.000 0.000 -0.802
59 983.34 2000.00 45 471 102 0.425 2000.000 0.000 0.425 3000.000 0.000 -0.802
60 1000.00 2000.00 50 475 88 0.425 2000.000 0.000 0.425 3000.000 0.000 -0.802
61 1016.67 2000.00 37 503 95 0.425 2000.000 0.000 0.425 3000.000 0.000 -0.802
62 1033.34 2000.00 53 495 110 0.425 2000.000 0.000 0.425 3000.000 0.000 -0.802
63 1050.00 2000.00 64 482 104 0.425 2000.000 0.000 0.425 3000.000 0.000 -0.802
64 1066.67 2000.00 46 568 99 0.425 2000.000 0.000 0.425 3000.000 0.000 -0.802
65 1083.34 2000.00 48 545 117 0.425 2000.000 0.000 0.425 3000.000 0.000 -0.802
66 1100.00 2000.00 41 538 106 0.425 2000.000 0.000 0.425 3000.000 0.000 -0.802
67 1116.67 2000.00 36 488 98 0.425 2000.000 0.000 0.425 3000.000 0.000 -0.802
68 1133.34 2000.00 40 502 102 0.425 2000.000 0.000 0.425 3000.000 0.000 -0.802
69 1150.00 2000.00 38 525 110 0.425 2000.000 0.000 0.425 3000.000 0.000 -0.802
70 1166.67 2000.00 34 513 113 0.425 2000.000 0.000 0.425 3000.000 0.000 -0.802
71 1183.34 2000.00 35 491 116 0.425 2000.000 0.000 0.425 3000.000 0.000 -0.802
72 1200.00 2000.00 28 453 102 0.425 2000.000 0.000 0.425 3000.000 0.000 -0.802
73 1216.67 2000.00 40 482 107 0.425 2000.000 0.000 0.425 3000.000 0.000 -0.802
74 1233.34 2000.00 24 461 108 0.425 2000.000 0.000 0.425 3000.000 0.000 -0.802
75 1250.00 2000.00 32 461 137 0.425 2000.000 0.000 0.425 3000.000 0.000 -0.802
76 1266.67 2000.00 38 469 111 0.425 2000.000 0.000 0.425 3000.000 0.000 -0.802
77 1283.34 2000.00 36 477 111 0.425 2000.000 0.000 0.425 3000.000 0.000 -0.802
78 1300.00 2000.00 47 454 105 0.425 2000.000 0.000 0.425 3000.000 0.000 -0.802
79 1316.67 2000.00 46 450 117 0.425 2000.000 0.000 0.425 3000.000 0.000 -0.802
80 1333.34 2000.00 32 449 96 0.425 2000.000 0.000 0.425 3000.000 0.000 -0.802
81 1350.00 2000.00 55 514 120 0.425 2000.000 0.000 0.425 3000.000 0.000 -0.802
82 1366.67 2000.00 53 474 121 0.425 2000.000 0.000 0.425 3000.000 0.000 -0.802
83 1383.34 2000.00 63 510 106 0.425 2000.000 0.000 0.425 3000.000 0.000 -0.802
84 1400.00 2000.00 69 516 106 0.425 2000.000 0.000 0.425 3000.000 0.000 -0.802
85 1416.67 2000.00 54 459 89 0.425 2000.000 0.000 0.425 3000.000 0.000 -0.802
86 1433.34 2000.00 49 443 97 0.425 2000.000 0.000 0.425 3000.000 0.000 -0.802
87 1450.00 2000.00 41 486 91 0.425 2000.000 0.000 0.425 3000.000 0.000 -0.802
88 1466.67 2000.00 48 485 77 0.425 2000.000 0.000 0.425 3000.000 0.000 -0.802
89 1483.34 2000.00 46 441 92 0.425 2000.000 0.000 0.425 3000.000 0.000 -0.802
90 1500.00 2000.00 45 485 76 0.425 2000.000 0.000 0.425 3000.000 0.000 -0.802
91 1516.67 2000.00 30 476 73 0.425 2000.000 0.000 0.425 3000.000 0.000 -0.802
92 1533.34 2000.00 45 444 77 0.425 2000.000 0.000 0.425 3000.000 0.000 -0.802
93 1550.00 2000.00 37 428 74 0.425 2000.000 0.000 0.425 3000.000 0.000 -0.802
94 1566.67 2000.00 26 480 82 0.425 2000.000 0.000 0.425 3000.000 0.000 -0.802
95 1583.34 2000.00 26 468 90 0.425 2000.000 0.000 0.425 3000.000 0.000 -0.802
96 1600.00 2000.00 37 455 107 0.425 2000.000 0.000 0.425 3000.000 0.000 -0.802
97 1616.67 2000.00 38 455 107 0.425 2000.000 0.000 0.425 3000.000 0.000 -0.802
98 1633.34 2000.00 33 511 98 0.425 2000.000 0.000 0.425 3000.000 0.000 -0.802
99 1650.00 2000.00 45 497 117 0.425 2000.000 0.000 0.425 3000.000 0.000 -0.802
100 1666.67 2000.00 43 533 142 0.425 2000.000 0.000 0.425 3000.000 0.000 -0.802
101 1683.34 2000.00 31 508 124 0.425 2000.000 0.000 0.425 3000.000 0.000 -0.802
102 1700.00 2000.00 40 513 147 0.425 2000.000 0.000 0.425 3000.000 0.000 -0.802
103 1716.67 2000.00 39 534 128 0.425 2000.000 0.000 0.425 3000.000 0.000 -0.802
104 1733.34 2000.00 52 513 136 0.425 2000.000 0.000 0.425 3000.000 0.000 -0.802
105 1750.00 2000.00 50 521 122 0.425 2000.000 0.000 0.425 3000.000 0.000 -0.802
106 1766.67 2000.00 48 516 105 0.425 2000.000 0.000 0.425 3000.000 0.000 -0.802
107 1783.34 2000.00 65 503 110 0.425 2000.000 0.000 0.425 3000.000 0.000 -0.802
108 1800.00 2000.00 50 478 108 0.425 2000.000 0.000 0.425 3000.000 0.000 -0.802
109 1816.67 2000.00 42 466 99 0.425 2000.000 0.000 0.425 3000.000 0.000 -0.802
110 1833.34 2000.00 41 485 82 0.425 2000.000 0.000 0.425 3000.000 0.000 -0.802
111 1850.00 2000.00 38 456 86 0.425 2000.000 0.000 0.425 3000.000 0.000 -0.802
112 1866.67 2000.00 46 408 65 0.425 2000.000 0.000 0.425 3000.000 0.000 -0.802
113 1883.34 2000.00 49 442 64 0.425 2000.000 0.000 0.425 3000.000 0.000 -0.802
114 1900.00 2000.00 41 448 75 0.425 2000.000 0.000 0.425 3000.000 0.000 -0.802
115 1916.67 2000.00 44 445 75 0.425 2000.000 0.000 0.425 3000.000 0.000 -0.802
116 1933.34 2000.00 47 450 72 0.425 2000.000 0.000 0.425 3000.000 0.000 -0.802
117 1950.00 2000.00 53 404 94 0.425 2000.000 0.000 0.425 3000.000 0.000 -0.802
118 1966.67 2000.00 53 452 112 0.425 2000.000 0.000 0.425 3000.000 0.000 -0.802
119 1983.34 2000.00 50 425 103 0.425 2000.000 0.000 0.425 3000.000 0.000 -0.802
