# BinNR microsec tot-time (s)  O-Beam H-beam AUX Ampl1(V) f1(Hz) phase1(deg) Ampl1(V) f1(Hz) phase1(deg) chi(pos)
0 0.00 2000.00 42 472 91 0.425 2000.000 0.000 0.425 3000.000 0.000 1.362
1 16.67 2000.00 47 517 95 0.425 2000.000 0.000 0.425 3000.000 0.000 1.362
2 33.33 2000.00 53 513 99 0.425 2000.000 0.000 0.425 3000.000 0.000 1.362
3 50.00 2000.00 36 578 93 0.425 2000.000 0.000 0.425 3000.000 0.000 1.362
4 66.67 2000.00 47 520 86 0.425 2000.000 0.000 0.425 3000.000 0.000 1.362
5 83.33 2000.00 34 540 87 0.425 2000.000 0.000 0.425 3000.000 0.000 1.362
6 100.00 2000.00 28 517 91 0.425 2000.000 0.000 0.425 3000.000 0.000 1.362
7 116.67 2000.00 38 540 96 0.425 2000.000 0.000 0.425 3000.000 0.000 1.362
8 133.33 2000.00 34 558 83 0.425 2000.000 0.000 0.425 3000.000 0.000 1.362
9 150.00 2000.00 34 550 90 0.425 2000.000 0.000 0.425 3000.000 0.000 1.362
10 166.67 2000.00 27 537 75 0.425 2000.000 0.000 0.425 3000.000 0.000 1.362
11 183.33 2000.00 23 456 78 0.425 2000.000 0.000 0.425 3000.000 0.000 1.362
12 200.00 2000.00 23 527 88 0.425 2000.000 0.000 0.425 3000.000 0.000 1.362
13 216.67 2000.00 26 522 109 0.425 2000.000 0.000 0.425 3000.000 0.000 1.362
14 233.33 2000.00 27 507 100 0.425 2000.000 0.000 0.425 3000.000 0.000 1.362
15 250.00 2000.00 32 462 112 0.425 2000.000 0.000 0.425 3000.000 0.000 1.362
16 266.67 2000.00 25 523 84 0.425 2000.000 0.000 0.425 3000.000 0.000 1.362
17 283.33 2000.00 31 490 90 0.425 2000.000 0.000 0.425 3000.000 0.000 1.362
18 300.00 2000.00 32 501 95 0.425 2000.000 0.000 0.425 3000.000 0.000 1.362
19 316.67 2000.00 40 551 108 0.425 2000.000 0.000 0.425 3000.000 0.000 1.362
20 333.33 2000.00 37 483 90 0.425 2000.000 0.000 0.425 3000.000 0.000 1.362
21 350.00 2000.00 51 467 102 0.425 2000.000 0.000 0.425 3000.000 0.000 1.362
22 366.67 2000.00 48 500 89 0.425 2000.000 0.000 0.425 3000.000 0.000 1.362
23 383.33 2000.00 48 496 81 0.425 2000.000 0.000 0.425 3000.000 0.000 1.362
24 400.00 2000.00 50 495 94 0.425 2000.000 0.000 0.425 3000.000 0.000 1.362
25 416.67 2000.00 56 498 64 0.425 2000.000 0.000 0.425 3000.000 0.000 1.362
26 433.33 2000.00 46 507 74 0.425 2000.000 0.000 0.425 3000.000 0.000 1.362
27 450.00 2000.00 58 504 64 0.425 2000.000 0.000 0.425 3000.000 0.000 1.362
28 466.67 2000.00 58 525 76 0.425 2000.000 0.000 0.425 3000.000 0.000 1.362
29 483.33 2000.00 31 487 64 0.425 2000.000 0.000 0.425 3000.000 0.000 1.362
30 500.00 2000.00 36 487 68 0.425 2000.000 0.000 0.425 3000.000 0.000 1.362
31 516.67 2000.00 38 466 68 0.425 2000.000 0.000 0.425 3000.000 0.000 1.362
32 533.33 2000.00 37 527 78 0.425 2000.000 0.000 0.425 3000.000 0.000 1.362
33 550.00 2000.00 35 483 88 0.425 2000.000 0.000 0.425 3000.000 0.000 1.362
34 566.67 2000.00 30 504 92 0.425 2000.000 0.000 0.425 3000.000 0.000 1.362
35 583.33 2000.00 32 508 87 0.425 2000.000 0.000 0.425 3000.000 0.000 1.362
36 600.00 2000.00 31 510 79 0.425 2000.000 0.000 0.425 3000.000 0.000 1.362
37 616.67 2000.00 36 544 81 0.425 2000.000 0.000 0.425 3000.000 0.000 1.362
38 633.33 2000.00 25 531 111 0.425 2000.000 0.000 0.425 3000.000 0.000 1.362
39 650.00 2000.00 35 524 103 0.425 2000.000 0.000 0.425 3000.000 0.000 1.362
40 666.67 2000.00 31 540 112 0.425 2000.000 0.000 0.425 3000.000 0.000 1.362
41 683.33 2000.00 43 517 119 0.425 2000.000 0.000 0.425 3000.000 0.000 1.362
42 700.00 2000.00 41 562 137 0.425 2000.000 0.000 0.425 3000.000 0.000 1.362
43 716.67 2000.00 42 526 97 0.425 2000.000 0.000 0.425 3000.000 0.000 1.362
44 733.33 2000.00 40 504 89 0.425 2000.000 0.000 0.425 3000.000 0.000 1.362
45 750.00 2000.00 32 502 90 0.425 2000.000 0.000 0.425 3000.000 0.000 1.362
46 766.67 2000.00 44 534 112 0.425 2000.000 0.000 0.425 3000.000 0.000 1.362
47 783.33 2000.00 40 533 69 0.425 2000.000 0.000 0.425 3000.000 0.000 1.362
48 800.00 2000.00 49 495 72 0.425 2000.000 0.000 0.425 3000.000 0.000 1.362
49 816.67 2000.00 47 508 70 0.425 2000.000 0.000 0.425 3000.000 0.000 1.362
50 833.34 2000.00 43 524 71 0.425 2000.000 0.000 0.425 3000.000 0.000 1.362
51 850.00 2000.00 35 497 55 0.425 2000.000 0.000 0.425 3000.000 0.000 1.362
52 866.67 2000.00 36 461 74 0.425 2000.000 0.000 0.425 3000.000 0.000 1.362
53 883.34 2000.00 36 479 85 0.425 2000.000 0.000 0.425 3000.000 0.000 1.362
54 900.00 2000.00 35 431 64 0.425 2000.000 0.000 0.425 3000.000 0.000 1.362
55 916.67 2000.00 39 453 75 0.425 2000.000 0.000 0.425 3000.000 0.000 1.362
56 933.34 2000.00 41 477 79 0.425 2000.000 0.000 0.425 3000.000 0.000 1.362
57 950.00 2000.00 38 474 83 0.425 2000.000 0.000 0.425 3000.000 0.000 1.362
58 966.67 2000.00 45 443 90 0.425 2000.000 0.000 0.425 3000.000 0.000 1.362
59 983.34 2000.00 42 458 83 0.425 2000.000 0.000 0.425 3000.000 0.000 1.362
60 1000.00 2000.00 48 476 78 0.425 2000.000 0.000 0.425 3000.000 0.000 1.362
61 1016.67 2000.00 37 515 97 0.425 2000.000 0.000 0.425 3000.000 0.000 1.362
62 1033.34 2000.00 41 486 99 0.425 2000.000 0.000 0.425 3000.000 0.000 1.362
63 1050.00 2000.00 31 500 86 0.425 2000.000 0.000 0.425 3000.000 0.000 1.362
64 1066.67 2000.00 45 490 79 0.425 2000.000 0.000 0.425 3000.000 0.000 1.362
65 1083.34 2000.00 33 518 88 0.425 2000.000 0.000 0.425 3000.000 0.000 1.362
66 1100.00 2000.00 45 558 78 0.425 2000.000 0.000 0.425 3000.000 0.000 1.362
67 1116.67 2000.00 38 534 78 0.425 2000.000 0.000 0.425 3000.000 0.000 1.362
68 1133.34 2000.00 44 503 75 0.425 2000.000 0.000 0.425 3000.000 0.000 1.362
69 1150.00 2000.00 36 519 92 0.425 2000.000 0.000 0.425 3000.000 0.000 1.362
70 1166.67 2000.00 27 539 84 0.425 2000.000 0.000 0.425 3000.000 0.000 1.362
71 1183.34 2000.00 40 523 74 0.425 2000.000 0.000 0.425 3000.000 0.000 1.362
72 1200.00 2000.00 21 507 96 0.425 2000.000 0.000 0.425 3000.000 0.000 1.362
73 1216.67 2000.00 35 526 86 0.425 2000.000 0.000 0.425 3000.000 0.000 1.362
74 1233.34 2000.00 34 461 86 0.425 2000.000 0.000 0.425 3000.000 0.000 1.362
75 1250.00 2000.00 21 531 86 0.425 2000.000 0.000 0.425 3000.000 0.000 1.362
76 1266.67 2000.00 37 495 85 0.425 2000.000 0.000 0.425 3000.000 0.000 1.362
77 1283.34 2000.00 30 508 94 0.425 2000.000 0.000 0.425 3000.000 0.000 1.362
78 1300.00 2000.00 37 462 95 0.425 2000.000 0.000 0.425 3000.000 0.000 1.362
79 1316.67 2000.00 32 495 92 0.425 2000.000 0.000 0.425 3000.000 0.000 1.362
80 1333.34 2000.00 55 484 89 0.425 2000.000 0.000 0.425 3000.000 0.000 1.362
81 1350.00 2000.00 41 539 94 0.425 2000.000 0.000 0.425 3000.000 0.000 1.362
82 1366.67 2000.00 46 477 100 0.425 2000.000 0.000 0.425 3000.000 0.000 1.362
83 1383.34 2000.00 42 522 76 0.425 2000.000 0.000 0.425 3000.000 0.000 1.362
84 1400.00 2000.00 48 496 64 0.425 2000.000 0.000 0.425 3000.000 0.000 1.362
85 1416.67 2000.00 55 499 71 0.425 2000.000 0.000 0.425 3000.000 0.000 1.362
86 1433.34 2000.00 33 513 86 0.425 2000.000 0.000 0.425 3000.000 0.000 1.362
87 1450.00 2000.00 50 480 75 0.425 2000.000 0.000 0.425 3000.000 0.000 1.362
88 1466.67 2000.00 36 505 58 0.425 2000.000 0.000 0.425 3000.000 0.000 1.362
89 1483.34 2000.00 24 493 67 0.425 2000.000 0.000 0.425 3000.000 0.000 1.362
90 1500.00 2000.00 40 454 68 0.425 2000.000 0.000 0.425 3000.000 0.000 1.362
91 1516.67 2000.00 33 482 81 0.425 2000.000 0.000 0.425 3000.000 0.000 1.362
92 1533.34 2000.00 33 519 70 0.425 2000.000 0.000 0.425 3000.000 0.000 1.362
93 1550.00 2000.00 42 485 65 0.425 2000.000 0.000 0.425 3000.000 0.000 1.362
94 1566.67 2000.00 37 468 78 0.425 2000.000 0.000 0.425 3000.000 0.000 1.362
95 1583.34 2000.00 26 483 71 0.425 2000.000 0.000 0.425 3000.000 0.000 1.362
96 1600.00 2000.00 39 520 75 0.425 2000.000 0.000 0.425 3000.000 0.000 1.362
97 1616.67 2000.00 46 517 107 0.425 2000.000 0.000 0.425 3000.000 0.000 1.362
98 1633.34 2000.00 41 499 90 0.425 2000.000 0.000 0.425 3000.000 0.000 1.362
99 1650.00 2000.00 54 505 120 0.425 2000.000 0.000 0.425 3000.000 0.000 1.362
100 1666.67 2000.00 31 514 116 0.425 2000.000 0.000 0.425 3000.000 0.000 1.362
101 1683.34 2000.00 42 517 125 0.425 2000.000 0.000 0.425 3000.000 0.000 1.362
102 1700.00 2000.00 36 498 115 0.425 2000.000 0.000 0.425 3000.000 0.000 1.362
103 1716.67 2000.00 38 530 115 0.425 2000.000 0.000 0.425 3000.000 0.000 1.362
104 1733.34 2000.00 41 527 105 0.425 2000.000 0.000 0.425 3000.000 0.000 1.362
105 1750.00 2000.00 33 547 119 0.425 2000.000 0.000 0.425 3000.000 0.000 1.362
106 1766.67 2000.00 40 487 96 0.425 2000.000 0.000 0.425 3000.000 0.000 1.362
107 1783.34 2000.00 50 513 104 0.425 2000.000 0.000 0.425 3000.000 0.000 1.362
108 1800.00 2000.00 35 503 82 0.425 2000.000 0.000 0.425 3000.000 0.000 1.362
109 1816.67 2000.00 36 504 68 0.425 2000.000 0.000 0.425 3000.000 0.000 1.362
110 1833.34 2000.00 38 501 81 0.425 2000.000 0.000 0.425 3000.000 0.000 1.362
111 1850.00 2000.00 41 462 63 0.425 2000.000 0.000 0.425 3000.000 0.000 1.362
112 1866.67 2000.00 36 496 62 0.425 2000.000 0.000 0.425 3000.000 0.000 1.362
113 1883.34 2000.00 37 417 52 0.425 2000.000 0.000 0.425 3000.000 0.000 1.362
114 1900.00 2000.00 31 500 85 0.425 2000.000 0.000 0.425 3000.000 0.000 1.362
115 1916.67 2000.00 38 483 72 0.425 2000.000 0.000 0.425 3000.000 0.000 1.362
116 1933.34 2000.00 39 462 58 0.425 2000.000 0.000 0.425 3000.000 0.000 1.362
117 1950.00 2000.00 37 420 72 0.425 2000.000 0.000 0.425 3000.000 0.000 1.362
118 1966.67 2000.00 43 496 71 0.425 2000.000 0.000 0.425 3000.000 0.000 1.362
119 1983.34 2000.00 40 446 77 0.425 2000.000 0.000 0.425 3000.000 0.000 1.362
