# BinNR microsec tot-time (s)  O-Beam H-beam AUX Ampl1(V) f1(Hz) phase1(deg) Ampl1(V) f1(Hz) phase1(deg) chi(pos)
0 0.00 2000.00 85 375 192 0.425 2000.000 0.000 0.425 3000.000 0.000 0.945
1 16.67 2000.00 75 354 162 0.425 2000.000 0.000 0.425 3000.000 0.000 0.945
2 33.33 2000.00 80 354 219 0.425 2000.000 0.000 0.425 3000.000 0.000 0.945
3 50.00 2000.00 91 410 168 0.425 2000.000 0.000 0.425 3000.000 0.000 0.945
4 66.67 2000.00 70 396 199 0.425 2000.000 0.000 0.425 3000.000 0.000 0.945
5 83.33 2000.00 74 356 167 0.425 2000.000 0.000 0.425 3000.000 0.000 0.945
6 100.00 2000.00 89 362 182 0.425 2000.000 0.000 0.425 3000.000 0.000 0.945
7 116.67 2000.00 80 381 161 0.425 2000.000 0.000 0.425 3000.000 0.000 0.945
8 133.33 2000.00 60 354 183 0.425 2000.000 0.000 0.425 3000.000 0.000 0.945
9 150.00 2000.00 72 400 189 0.425 2000.000 0.000 0.425 3000.000 0.000 0.945
10 166.67 2000.00 72 362 181 0.425 2000.000 0.000 0.425 3000.000 0.000 0.945
11 183.33 2000.00 58 395 174 0.425 2000.000 0.000 0.425 3000.000 0.000 0.945
12 200.00 2000.00 78 362 174 0.425 2000.000 0.000 0.425 3000.000 0.000 0.945
13 216.67 2000.00 66 347 183 0.425 2000.000 0.000 0.425 3000.000 0.000 0.945
14 233.33 2000.00 65 342 171 0.425 2000.000 0.000 0.425 3000.000 0.000 0.945
15 250.00 2000.00 68 344 190 0.425 2000.000 0.000 0.425 3000.000 0.000 0.945
16 266.67 2000.00 72 354 206 0.425 2000.000 0.000 0.425 3000.000 0.000 0.945
17 283.33 2000.00 87 371 194 0.425 2000.000 0.000 0.425 3000.000 0.000 0.945
18 300.00 2000.00 66 358 175 0.425 2000.000 0.000 0.425 3000.000 0.000 0.945
19 316.67 2000.00 83 369 179 0.425 2000.000 0.000 0.425 3000.000 0.000 0.945
20 333.33 2000.00 92 314 194 0.425 2000.000 0.000 0.425 3000.000 0.000 0.945
21 350.00 2000.00 93 364 165 0.425 2000.000 0.000 0.425 3000.000 0.000 0.945
22 366.67 2000.00 61 359 194 0.425 2000.000 0.000 0.425 3000.000 0.000 0.945
23 383.33 2000.00 76 346 175 0.425 2000.000 0.000 0.425 3000.000 0.000 0.945
24 400.00 2000.00 88 379 177 0.425 2000.000 0.000 0.425 3000.000 0.000 0.945
25 416.67 2000.00 61 329 164 0.425 2000.000 0.000 0.425 3000.000 0.000 0.945
26 433.33 2000.00 70 360 169 0.425 2000.000 0.000 0.425 3000.000 0.000 0.945
27 450.00 2000.00 79 330 137 0.425 2000.000 0.000 0.425 3000.000 0.000 0.945
28 466.67 2000.00 77 361 176 0.425 2000.000 0.000 0.425 3000.000 0.000 0.945
29 483.33 2000.00 73 345 142 0.425 2000.000 0.000 0.425 3000.000 0.000 0.945
30 500.00 2000.00 78 367 156 0.425 2000.000 0.000 0.425 3000.000 0.000 0.945
31 516.67 2000.00 59 319 166 0.425 2000.000 0.000 0.425 3000.000 0.000 0.945
32 533.33 2000.00 79 333 153 0.425 2000.000 0.000 0.425 3000.000 0.000 0.945
33 550.00 2000.00 61 352 156 0.425 2000.000 0.000 0.425 3000.000 0.000 0.945
34 566.67 2000.00 70 325 177 0.425 2000.000 0.000 0.425 3000.000 0.000 0.945
35 583.33 2000.00 57 346 174 0.425 2000.000 0.000 0.425 3000.000 0.000 0.945
36 600.00 2000.00 62 374 182 0.425 2000.000 0.000 0.425 3000.000 0.000 0.945
37 616.67 2000.00 73 378 182 0.425 2000.000 0.000 0.425 3000.000 0.000 0.945
38 633.33 2000.00 60 338 201 0.425 2000.000 0.000 0.425 3000.000 0.000 0.945
39 650.00 2000.00 90 379 194 0.425 2000.000 0.000 0.425 3000.000 0.000 0.945
40 666.67 2000.00 63 383 204 0.425 2000.000 0.000 0.425 3000.000 0.000 0.945
41 683.33 2000.00 73 408 213 0.425 2000.000 0.000 0.425 3000.000 0.000 0.945
42 700.00 2000.00 72 393 188 0.425 2000.000 0.000 0.425 3000.000 0.000 0.945
43 716.67 2000.00 65 382 196 0.425 2000.000 0.000 0.425 3000.000 0.000 0.945
44 733.33 2000.00 72 390 185 0.425 2000.000 0.000 0.425 3000.000 0.000 0.945
45 750.00 2000.00 63 369 187 0.425 2000.000 0.000 0.425 3000.000 0.000 0.945
46 766.67 2000.00 68 398 215 0.425 2000.000 0.000 0.425 3000.000 0.000 0.945
47 783.33 2000.00 78 392 182 0.425 2000.000 0.000 0.425 3000.000 0.000 0.945
48 800.00 2000.00 73 395 169 0.425 2000.000 0.000 0.425 3000.000 0.000 0.945
49 816.67 2000.00 71 377 187 0.425 2000.000 0.000 0.425 3000.000 0.000 0.945
50 833.34 2000.00 110 359 164 0.425 2000.000 0.000 0.425 3000.000 0.000 0.945
51 850.00 2000.00 60 324 168 0.425 2000.000 0.000 0.425 3000.000 0.000 0.945
52 866.67 2000.00 71 332 143 0.425 2000.000 0.000 0.425 3000.000 0.000 0.945
53 883.34 2000.00 74 347 148 0.425 2000.000 0.000 0.425 3000.000 0.000 0.945
54 900.00 2000.00 65 326 168 0.425 2000.000 0.000 0.425 3000.000 0.000 0.945
55 916.67 2000.00 64 284 147 0.425 2000.000 0.000 0.425 3000.000 0.000 0.945
56 933.34 2000.00 73 321 176 0.425 2000.000 0.000 0.425 3000.000 0.000 0.945
57 950.00 2000.00 80 325 178 0.425 2000.000 0.000 0.425 3000.000 0.000 0.945
58 966.67 2000.00 67 347 185 0.425 2000.000 0.000 0.425 3000.000 0.000 0.945
59 983.34 2000.00 84 327 170 0.425 2000.000 0.000 0.425 3000.000 0.000 0.945
60 1000.00 2000.00 56 362 131 0.425 2000.000 0.000 0.425 3000.000 0.000 0.945
61 1016.67 2000.00 72 371 181 0.425 2000.000 0.000 0.425 3000.000 0.000 0.945
62 1033.34 2000.00 75 344 188 0.425 2000.000 0.000 0.425 3000.000 0.000 0.945
63 1050.00 2000.00 79 355 191 0.425 2000.000 0.000 0.425 3000.000 0.000 0.945
64 1066.67 2000.00 74 368 179 0.425 2000.000 0.000 0.425 3000.000 0.000 0.945
65 1083.34 2000.00 51 402 182 0.425 2000.000 0.000 0.425 3000.000 0.000 0.945
66 1100.00 2000.00 54 386 169 0.425 2000.000 0.000 0.425 3000.000 0.000 0.945
67 1116.67 2000.00 82 334 176 0.425 2000.000 0.000 0.425 3000.000 0.000 0.945
68 1133.34 2000.00 77 347 178 0.425 2000.000 0.000 0.425 3000.000 0.000 0.945
69 1150.00 2000.00 62 386 199 0.425 2000.000 0.000 0.425 3000.000 0.000 0.945
70 1166.67 2000.00 65 373 181 0.425 2000.000 0.000 0.425 3000.000 0.000 0.945
71 1183.34 2000.00 67 371 184 0.425 2000.000 0.000 0.425 3000.000 0.000 0.945
72 1200.00 2000.00 50 392 176 0.425 2000.000 0.000 0.425 3000.000 0.000 0.945
73 1216.67 2000.00 69 348 204 0.425 2000.000 0.000 0.425 3000.000 0.000 0.945
74 1233.34 2000.00 60 374 186 0.425 2000.000 0.000 0.425 3000.000 0.000 0.945
75 1250.00 2000.00 73 340 178 0.425 2000.000 0.000 0.425 3000.000 0.000 0.945
76 1266.67 2000.00 65 362 157 0.425 2000.000 0.000 0.425 3000.000 0.000 0.945
77 1283.34 2000.00 73 355 170 0.425 2000.000 0.000 0.425 3000.000 0.000 0.945
78 1300.00 2000.00 79 386 187 0.425 2000.000 0.000 0.425 3000.000 0.000 0.945
79 1316.67 2000.00 60 338 160 0.425 2000.000 0.000 0.425 3000.000 0.000 0.945
80 1333.34 2000.00 72 376 207 0.425 2000.000 0.000 0.425 3000.000 0.000 0.945
81 1350.00 2000.00 72 354 176 0.425 2000.000 0.000 0.425 3000.000 0.000 0.945
82 1366.67 2000.00 79 314 187 0.425 2000.000 0.000 0.425 3000.000 0.000 0.945
83 1383.34 2000.00 73 360 183 0.425 2000.000 0.000 0.425 3000.000 0.000 0.945
84 1400.00 2000.00 76 351 162 0.425 2000.000 0.000 0.425 3000.000 0.000 0.945
85 1416.67 2000.00 83 373 169 0.425 2000.000 0.000 0.425 3000.000 0.000 0.945
86 1433.34 2000.00 87 362 169 0.425 2000.000 0.000 0.425 3000.000 0.000 0.945
87 1450.00 2000.00 92 349 174 0.425 2000.000 0.000 0.425 3000.000 0.000 0.945
88 1466.67 2000.00 67 364 152 0.425 2000.000 0.000 0.425 3000.000 0.000 0.945
89 1483.34 2000.00 65 355 156 0.425 2000.000 0.000 0.425 3000.000 0.000 0.945
90 1500.00 2000.00 62 352 149 0.425 2000.000 0.000 0.425 3000.000 0.000 0.945
91 1516.67 2000.00 68 366 153 0.425 2000.000 0.000 0.425 3000.000 0.000 0.945
92 1533.34 2000.00 72 363 164 0.425 2000.000 0.000 0.425 3000.000 0.000 0.945
93 1550.00 2000.00 78 323 167 0.425 2000.000 0.000 0.425 3000.000 0.000 0.945
94 1566.67 2000.00 65 311 180 0.425 2000.000 0.000 0.425 3000.000 0.000 0.945
95 1583.34 2000.00 61 366 175 0.425 2000.000 0.000 0.425 3000.000 0.000 0.945
96 1600.00 2000.00 61 348 155 0.425 2000.000 0.000 0.425 3000.000 0.000 0.945
97 1616.67 2000.00 87 353 178 0.425 2000.000 0.000 0.425 3000.000 0.000 0.945
98 1633.34 2000.00 80 379 188 0.425 2000.000 0.000 0.425 3000.000 0.000 0.945
99 1650.00 2000.00 73 339 172 0.425 2000.000 0.000 0.425 3000.000 0.000 0.945
100 1666.67 2000.00 53 370 196 0.425 2000.000 0.000 0.425 3000.000 0.000 0.945
101 1683.34 2000.00 74 370 185 0.425 2000.000 0.000 0.425 3000.000 0.000 0.945
102 1700.00 2000.00 64 398 207 0.425 2000.000 0.000 0.425 3000.000 0.000 0.945
103 1716.67 2000.00 74 391 209 0.425 2000.000 0.000 0.425 3000.000 0.000 0.945
104 1733.34 2000.00 77 370 182 0.425 2000.000 0.000 0.425 3000.000 0.000 0.945
105 1750.00 2000.00 74 392 208 0.425 2000.000 0.000 0.425 3000.000 0.000 0.945
106 1766.67 2000.00 70 394 204 0.425 2000.000 0.000 0.425 3000.000 0.000 0.945
107 1783.34 2000.00 82 351 178 0.425 2000.000 0.000 0.425 3000.000 0.000 0.945
108 1800.00 2000.00 85 330 179 0.425 2000.000 0.000 0.425 3000.000 0.000 0.945
109 1816.67 2000.00 75 369 169 0.425 2000.000 0.000 0.425 3000.000 0.000 0.945
110 1833.34 2000.00 82 334 141 0.425 2000.000 0.000 0.425 3000.000 0.000 0.945
111 1850.00 2000.00 67 339 150 0.425 2000.000 0.000 0.425 3000.000 0.000 0.945
112 1866.67 2000.00 77 334 150 0.425 2000.000 0.000 0.425 3000.000 0.000 0.945
113 1883.34 2000.00 71 343 156 0.425 2000.000 0.000 0.425 3000.000 0.000 0.945
114 1900.00 2000.00 64 330 174 0.425 2000.000 0.000 0.425 3000.000 0.000 0.945
115 1916.67 2000.00 74 326 178 0.425 2000.000 0.000 0.425 3000.000 0.000 0.945
116 1933.34 2000.00 66 293 161 0.425 2000.000 0.000 0.425 3000.000 0.000 0.945
117 1950.00 2000.00 80 348 165 0.425 2000.000 0.000 0.425 3000.000 0.000 0.945
118 1966.67 2000.00 67 350 206 0.425 2000.000 0.000 0.425 3000.000 0.000 0.945
119 1983.34 2000.00 82 327 168 0.425 2000.000 0.000 0.425 3000.000 0.000 0.945
