# BinNR microsec tot-time (s)  O-Beam H-beam AUX Ampl1(V) f1(Hz) phase1(deg) Ampl1(V) f1(Hz) phase1(deg) chi(pos)
0 0.00 2000.00 65 367 165 0.425 2000.000 0.000 0.425 3000.000 0.000 0.374
1 16.67 2000.00 60 354 160 0.425 2000.000 0.000 0.425 3000.000 0.000 0.374
2 33.33 2000.00 65 355 161 0.425 2000.000 0.000 0.425 3000.000 0.000 0.374
3 50.00 2000.00 68 352 159 0.425 2000.000 0.000 0.425 3000.000 0.000 0.374
4 66.67 2000.00 46 333 153 0.425 2000.000 0.000 0.425 3000.000 0.000 0.374
5 83.33 2000.00 65 367 156 0.425 2000.000 0.000 0.425 3000.000 0.000 0.374
6 100.00 2000.00 62 327 157 0.425 2000.000 0.000 0.425 3000.000 0.000 0.374
7 116.67 2000.00 70 321 161 0.425 2000.000 0.000 0.425 3000.000 0.000 0.374
8 133.33 2000.00 53 340 152 0.425 2000.000 0.000 0.425 3000.000 0.000 0.374
9 150.00 2000.00 66 342 158 0.425 2000.000 0.000 0.425 3000.000 0.000 0.374
10 166.67 2000.00 79 371 168 0.425 2000.000 0.000 0.425 3000.000 0.000 0.374
11 183.33 2000.00 65 381 172 0.425 2000.000 0.000 0.425 3000.000 0.000 0.374
12 200.00 2000.00 73 360 142 0.425 2000.000 0.000 0.425 3000.000 0.000 0.374
13 216.67 2000.00 90 387 155 0.425 2000.000 0.000 0.425 3000.000 0.000 0.374
14 233.33 2000.00 83 356 173 0.425 2000.000 0.000 0.425 3000.000 0.000 0.374
15 250.00 2000.00 83 363 179 0.425 2000.000 0.000 0.425 3000.000 0.000 0.374
16 266.67 2000.00 55 363 173 0.425 2000.000 0.000 0.425 3000.000 0.000 0.374
17 283.33 2000.00 72 394 160 0.425 2000.000 0.000 0.425 3000.000 0.000 0.374
18 300.00 2000.00 67 344 172 0.425 2000.000 0.000 0.425 3000.000 0.000 0.374
19 316.67 2000.00 60 395 162 0.425 2000.000 0.000 0.425 3000.000 0.000 0.374
20 333.33 2000.00 65 379 163 0.425 2000.000 0.000 0.425 3000.000 0.000 0.374
21 350.00 2000.00 66 376 172 0.425 2000.000 0.000 0.425 3000.000 0.000 0.374
22 366.67 2000.00 49 374 154 0.425 2000.000 0.000 0.425 3000.000 0.000 0.374
23 383.33 2000.00 54 378 177 0.425 2000.000 0.000 0.425 3000.000 0.000 0.374
24 400.00 2000.00 56 356 179 0.425 2000.000 0.000 0.425 3000.000 0.000 0.374
25 416.67 2000.00 55 373 150 0.425 2000.000 0.000 0.425 3000.000 0.000 0.374
26 433.33 2000.00 53 385 193 0.425 2000.000 0.000 0.425 3000.000 0.000 0.374
27 450.00 2000.00 53 372 195 0.425 2000.000 0.000 0.425 3000.000 0.000 0.374
28 466.67 2000.00 76 383 189 0.425 2000.000 0.000 0.425 3000.000 0.000 0.374
29 483.33 2000.00 64 380 188 0.425 2000.000 0.000 0.425 3000.000 0.000 0.374
30 500.00 2000.00 73 415 182 0.425 2000.000 0.000 0.425 3000.000 0.000 0.374
31 516.67 2000.00 70 417 151 0.425 2000.000 0.000 0.425 3000.000 0.000 0.374
32 533.33 2000.00 75 355 178 0.425 2000.000 0.000 0.425 3000.000 0.000 0.374
33 550.00 2000.00 77 386 194 0.425 2000.000 0.000 0.425 3000.000 0.000 0.374
34 566.67 2000.00 62 393 173 0.425 2000.000 0.000 0.425 3000.000 0.000 0.374
35 583.33 2000.00 52 396 181 0.425 2000.000 0.000 0.425 3000.000 0.000 0.374
36 600.00 2000.00 46 375 174 0.425 2000.000 0.000 0.425 3000.000 0.000 0.374
37 616.67 2000.00 70 350 175 0.425 2000.000 0.000 0.425 3000.000 0.000 0.374
38 633.33 2000.00 68 378 137 0.425 2000.000 0.000 0.425 3000.000 0.000 0.374
39 650.00 2000.00 70 357 153 0.425 2000.000 0.000 0.425 3000.000 0.000 0.374
40 666.67 2000.00 76 398 145 0.425 2000.000 0.000 0.425 3000.000 0.000 0.374
41 683.33 2000.00 84 369 160 0.425 2000.000 0.000 0.425 3000.000 0.000 0.374
42 700.00 2000.00 52 327 129 0.425 2000.000 0.000 0.425 3000.000 0.000 0.374
43 716.67 2000.00 68 334 159 0.425 2000.000 0.000 0.425 3000.000 0.000 0.374
44 733.33 2000.00 48 323 161 0.425 2000.000 0.000 0.425 3000.000 0.000 0.374
45 750.00 2000.00 66 366 147 0.425 2000.000 0.000 0.425 3000.000 0.000 0.374
46 766.67 2000.00 70 312 172 0.425 2000.000 0.000 0.425 3000.000 0.000 0.374
47 783.33 2000.00 64 331 202 0.425 2000.000 0.000 0.425 3000.000 0.000 0.374
48 800.00 2000.00 55 363 174 0.425 2000.000 0.000 0.425 3000.000 0.000 0.374
49 816.67 2000.00 61 383 175 0.425 2000.000 0.000 0.425 3000.000 0.000 0.374
50 833.34 2000.00 54 367 178 0.425 2000.000 0.000 0.425 3000.000 0.000 0.374
51 850.00 2000.00 73 416 203 0.425 2000.000 0.000 0.425 3000.000 0.000 0.374
52 866.67 2000.00 63 449 176 0.425 2000.000 0.000 0.425 3000.000 0.000 0.374
53 883.34 2000.00 65 361 193 0.425 2000.000 0.000 0.425 3000.000 0.000 0.374
54 900.00 2000.00 54 404 176 0.425 2000.000 0.000 0.425 3000.000 0.000 0.374
55 916.67 2000.00 67 412 167 0.425 2000.000 0.000 0.425 3000.000 0.000 0.374
56 933.34 2000.00 79 458 165 0.425 2000.000 0.000 0.425 3000.000 0.000 0.374
57 950.00 2000.00 71 411 189 0.425 2000.000 0.000 0.425 3000.000 0.000 0.374
58 966.67 2000.00 82 362 152 0.425 2000.000 0.000 0.425 3000.000 0.000 0.374
59 983.34 2000.00 52 383 164 0.425 2000.000 0.000 0.425 3000.000 0.000 0.374
60 1000.00 2000.00 61 379 194 0.425 2000.000 0.000 0.425 3000.000 0.000 0.374
61 1016.67 2000.00 54 397 147 0.425 2000.000 0.000 0.425 3000.000 0.000 0.374
62 1033.34 2000.00 82 363 171 0.425 2000.000 0.000 0.425 3000.000 0.000 0.374
63 1050.00 2000.00 53 326 169 0.425 2000.000 0.000 0.425 3000.000 0.000 0.374
64 1066.67 2000.00 62 320 160 0.425 2000.000 0.000 0.425 3000.000 0.000 0.374
65 1083.34 2000.00 52 324 177 0.425 2000.000 0.000 0.425 3000.000 0.000 0.374
66 1100.00 2000.00 76 324 178 0.425 2000.000 0.000 0.425 3000.000 0.000 0.374
67 1116.67 2000.00 63 347 165 0.425 2000.000 0.000 0.425 3000.000 0.000 0.374
68 1133.34 2000.00 71 370 174 0.425 2000.000 0.000 0.425 3000.000 0.000 0.374
69 1150.00 2000.00 67 353 169 0.425 2000.000 0.000 0.425 3000.000 0.000 0.374
70 1166.67 2000.00 72 338 163 0.425 2000.000 0.000 0.425 3000.000 0.000 0.374
71 1183.34 2000.00 73 375 164 0.425 2000.000 0.000 0.425 3000.000 0.000 0.374
72 1200.00 2000.00 73 345 178 0.425 2000.000 0.000 0.425 3000.000 0.000 0.374
73 1216.67 2000.00 72 372 199 0.425 2000.000 0.000 0.425 3000.000 0.000 0.374
74 1233.34 2000.00 63 391 183 0.425 2000.000 0.000 0.425 3000.000 0.000 0.374
75 1250.00 2000.00 69 405 178 0.425 2000.000 0.000 0.425 3000.000 0.000 0.374
76 1266.67 2000.00 71 419 175 0.425 2000.000 0.000 0.425 3000.000 0.000 0.374
77 1283.34 2000.00 69 383 170 0.425 2000.000 0.000 0.425 3000.000 0.000 0.374
78 1300.00 2000.00 61 395 152 0.425 2000.000 0.000 0.425 3000.000 0.000 0.374
79 1316.67 2000.00 60 393 150 0.425 2000.000 0.000 0.425 3000.000 0.000 0.374
80 1333.34 2000.00 60 388 169 0.425 2000.000 0.000 0.425 3000.000 0.000 0.374
81 1350.00 2000.00 55 369 181 0.425 2000.000 0.000 0.425 3000.000 0.000 0.374
82 1366.67 2000.00 59 366 177 0.425 2000.000 0.000 0.425 3000.000 0.000 0.374
83 1383.34 2000.00 50 354 159 0.425 2000.000 0.000 0.425 3000.000 0.000 0.374
84 1400.00 2000.00 59 381 192 0.425 2000.000 0.000 0.425 3000.000 0.000 0.374
85 1416.67 2000.00 56 366 170 0.425 2000.000 0.000 0.425 3000.000 0.000 0.374
86 1433.34 2000.00 48 335 163 0.425 2000.000 0.000 0.425 3000.000 0.000 0.374
87 1450.00 2000.00 48 381 171 0.425 2000.000 0.000 0.425 3000.000 0.000 0.374
88 1466.67 2000.00 51 362 199 0.425 2000.000 0.000 0.425 3000.000 0.000 0.374
89 1483.34 2000.00 61 375 190 0.425 2000.000 0.000 0.425 3000.000 0.000 0.374
90 1500.00 2000.00 68 396 192 0.425 2000.000 0.000 0.425 3000.000 0.000 0.374
91 1516.67 2000.00 61 372 193 0.425 2000.000 0.000 0.425 3000.000 0.000 0.374
92 1533.34 2000.00 63 401 169 0.425 2000.000 0.000 0.425 3000.000 0.000 0.374
93 1550.00 2000.00 71 359 200 0.425 2000.000 0.000 0.425 3000.000 0.000 0.374
94 1566.67 2000.00 58 366 161 0.425 2000.000 0.000 0.425 3000.000 0.000 0.374
95 1583.34 2000.00 64 393 156 0.425 2000.000 0.000 0.425 3000.000 0.000 0.374
96 1600.00 2000.00 64 350 156 0.425 2000.000 0.000 0.425 3000.000 0.000 0.374
97 1616.67 2000.00 62 374 171 0.425 2000.000 0.000 0.425 3000.000 0.000 0.374
98 1633.34 2000.00 49 365 157 0.425 2000.000 0.000 0.425 3000.000 0.000 0.374
99 1650.00 2000.00 71 347 140 0.425 2000.000 0.000 0.425 3000.000 0.000 0.374
100 1666.67 2000.00 49 345 139 0.425 2000.000 0.000 0.425 3000.000 0.000 0.374
101 1683.34 2000.00 76 354 152 0.425 2000.000 0.000 0.425 3000.000 0.000 0.374
102 1700.00 2000.00 49 374 134 0.425 2000.000 0.000 0.425 3000.000 0.000 0.374
103 1716.67 2000.00 65 348 158 0.425 2000.000 0.000 0.425 3000.000 0.000 0.374
104 1733.34 2000.00 61 305 135 0.425 2000.000 0.000 0.425 3000.000 0.000 0.374
105 1750.00 2000.00 67 354 159 0.425 2000.000 0.000 0.425 3000.000 0.000 0.374
106 1766.67 2000.00 64 369 169 0.425 2000.000 0.000 0.425 3000.000 0.000 0.374
107 1783.34 2000.00 63 347 176 0.425 2000.000 0.000 0.425 3000.000 0.000 0.374
108 1800.00 2000.00 49 358 203 0.425 2000.000 0.000 0.425 3000.000 0.000 0.374
109 1816.67 2000.00 67 369 175 0.425 2000.000 0.000 0.425 3000.000 0.000 0.374
110 1833.34 2000.00 68 386 173 0.425 2000.000 0.000 0.425 3000.000 0.000 0.374
111 1850.00 2000.00 67 409 181 0.425 2000.000 0.000 0.425 3000.000 0.000 0.374
112 1866.67 2000.00 58 415 184 0.425 2000.000 0.000 0.425 3000.000 0.000 0.374
113 1883.34 2000.00 69 410 185 0.425 2000.000 0.000 0.425 3000.000 0.000 0.374
114 1900.00 2000.00 67 372 216 0.425 2000.000 0.000 0.425 3000.000 0.000 0.374
115 1916.67 2000.00 57 397 199 0.425 2000.000 0.000 0.425 3000.000 0.000 0.374
116 1933.34 2000.00 79 434 188 0.425 2000.000 0.000 0.425 3000.000 0.000 0.374
117 1950.00 2000.00 61 373 151 0.425 2000.000 0.000 0.425 3000.000 0.000 0.374
118 1966.67 2000.00 70 393 173 0.425 2000.000 0.000 0.425 3000.000 0.000 0.374
119 1983.34 2000.00 70 386 143 0.425 2000.000 0.000 0.425 3000.000 0.000 0.374
