# BinNR microsec tot-time (s)  O-Beam H-beam AUX Ampl1(V) f1(Hz) phase1(deg) Ampl1(V) f1(Hz) phase1(deg) chi(pos)
0 0.00 2000.00 43 506 108 0.425 2000.000 0.000 0.425 3000.000 0.000 0.077
1 16.67 2000.00 40 462 93 0.425 2000.000 0.000 0.425 3000.000 0.000 0.077
2 33.33 2000.00 34 447 91 0.425 2000.000 0.000 0.425 3000.000 0.000 0.077
3 50.00 2000.00 39 452 110 0.425 2000.000 0.000 0.425 3000.000 0.000 0.077
4 66.67 2000.00 34 436 97 0.425 2000.000 0.000 0.425 3000.000 0.000 0.077
5 83.33 2000.00 39 462 99 0.425 2000.000 0.000 0.425 3000.000 0.000 0.077
6 100.00 2000.00 32 439 107 0.425 2000.000 0.000 0.425 3000.000 0.000 0.077
7 116.67 2000.00 42 439 88 0.425 2000.000 0.000 0.425 3000.000 0.000 0.077
8 133.33 2000.00 44 445 106 0.425 2000.000 0.000 0.425 3000.000 0.000 0.077
9 150.00 2000.00 43 400 97 0.425 2000.000 0.000 0.425 3000.000 0.000 0.077
10 166.67 2000.00 42 440 115 0.425 2000.000 0.000 0.425 3000.000 0.000 0.077
11 183.33 2000.00 57 474 106 0.425 2000.000 0.000 0.425 3000.000 0.000 0.077
12 200.00 2000.00 38 479 118 0.425 2000.000 0.000 0.425 3000.000 0.000 0.077
13 216.67 2000.00 46 460 97 0.425 2000.000 0.000 0.425 3000.000 0.000 0.077
14 233.33 2000.00 48 473 115 0.425 2000.000 0.000 0.425 3000.000 0.000 0.077
15 250.00 2000.00 46 473 99 0.425 2000.000 0.000 0.425 3000.000 0.000 0.077
16 266.67 2000.00 29 448 88 0.425 2000.000 0.000 0.425 3000.000 0.000 0.077
17 283.33 2000.00 38 482 96 0.425 2000.000 0.000 0.425 3000.000 0.000 0.077
18 300.00 2000.00 48 478 115 0.425 2000.000 0.000 0.425 3000.000 0.000 0.077
19 316.67 2000.00 40 495 105 0.425 2000.000 0.000 0.425 3000.000 0.000 0.077
20 333.33 2000.00 39 529 105 0.425 2000.000 0.000 0.425 3000.000 0.000 0.077
21 350.00 2000.00 24 468 87 0.425 2000.000 0.000 0.425 3000.000 0.000 0.077
22 366.67 2000.00 44 449 106 0.425 2000.000 0.000 0.425 3000.000 0.000 0.077
23 383.33 2000.00 27 488 102 0.425 2000.000 0.000 0.425 3000.000 0.000 0.077
24 400.00 2000.00 37 426 99 0.425 2000.000 0.000 0.425 3000.000 0.000 0.077
25 416.67 2000.00 24 472 117 0.425 2000.000 0.000 0.425 3000.000 0.000 0.077
26 433.33 2000.00 34 470 111 0.425 2000.000 0.000 0.425 3000.000 0.000 0.077
27 450.00 2000.00 28 493 128 0.425 2000.000 0.000 0.425 3000.000 0.000 0.077
28 466.67 2000.00 41 449 134 0.425 2000.000 0.000 0.425 3000.000 0.000 0.077
29 483.33 2000.00 35 472 123 0.425 2000.000 0.000 0.425 3000.000 0.000 0.077
30 500.00 2000.00 39 512 143 0.425 2000.000 0.000 0.425 3000.000 0.000 0.077
31 516.67 2000.00 42 460 132 0.425 2000.000 0.000 0.425 3000.000 0.000 0.077
32 533.33 2000.00 43 452 128 0.425 2000.000 0.000 0.425 3000.000 0.000 0.077
33 550.00 2000.00 44 469 126 0.425 2000.000 0.000 0.425 3000.000 0.000 0.077
34 566.67 2000.00 44 474 122 0.425 2000.000 0.000 0.425 3000.000 0.000 0.077
35 583.33 2000.00 52 493 126 0.425 2000.000 0.000 0.425 3000.000 0.000 0.077
36 600.00 2000.00 47 454 108 0.425 2000.000 0.000 0.425 3000.000 0.000 0.077
37 616.67 2000.00 53 455 97 0.425 2000.000 0.000 0.425 3000.000 0.000 0.077
38 633.33 2000.00 41 437 86 0.425 2000.000 0.000 0.425 3000.000 0.000 0.077
39 650.00 2000.00 58 425 92 0.425 2000.000 0.000 0.425 3000.000 0.000 0.077
40 666.67 2000.00 55 411 84 0.425 2000.000 0.000 0.425 3000.000 0.000 0.077
41 683.33 2000.00 48 479 78 0.425 2000.000 0.000 0.425 3000.000 0.000 0.077
42 700.00 2000.00 35 445 103 0.425 2000.000 0.000 0.425 3000.000 0.000 0.077
43 716.67 2000.00 44 445 83 0.425 2000.000 0.000 0.425 3000.000 0.000 0.077
44 733.33 2000.00 44 463 81 0.425 2000.000 0.000 0.425 3000.000 0.000 0.077
45 750.00 2000.00 32 433 99 0.425 2000.000 0.000 0.425 3000.000 0.000 0.077
46 766.67 2000.00 42 434 98 0.425 2000.000 0.000 0.425 3000.000 0.000 0.077
47 783.33 2000.00 54 491 98 0.425 2000.000 0.000 0.425 3000.000 0.000 0.077
48 800.00 2000.00 34 409 98 0.425 2000.000 0.000 0.425 3000.000 0.000 0.077
49 816.67 2000.00 34 410 115 0.425 2000.000 0.000 0.425 3000.000 0.000 0.077
50 833.34 2000.00 31 490 119 0.425 2000.000 0.000 0.425 3000.000 0.000 0.077
51 850.00 2000.00 32 487 121 0.425 2000.000 0.000 0.425 3000.000 0.000 0.077
52 866.67 2000.00 37 515 147 0.425 2000.000 0.000 0.425 3000.000 0.000 0.077
53 883.34 2000.00 41 524 141 0.425 2000.000 0.000 0.425 3000.000 0.000 0.077
54 900.00 2000.00 44 494 113 0.425 2000.000 0.000 0.425 3000.000 0.000 0.077
55 916.67 2000.00 40 503 117 0.425 2000.000 0.000 0.425 3000.000 0.000 0.077
56 933.34 2000.00 42 516 126 0.425 2000.000 0.000 0.425 3000.000 0.000 0.077
57 950.00 2000.00 47 518 118 0.425 2000.000 0.000 0.425 3000.000 0.000 0.077
58 966.67 2000.00 48 504 85 0.425 2000.000 0.000 0.425 3000.000 0.000 0.077
59 983.34 2000.00 47 454 127 0.425 2000.000 0.000 0.425 3000.000 0.000 0.077
60 1000.00 2000.00 37 409 99 0.425 2000.000 0.000 0.425 3000.000 0.000 0.077
61 1016.67 2000.00 34 453 98 0.425 2000.000 0.000 0.425 3000.000 0.000 0.077
62 1033.34 2000.00 37 457 93 0.425 2000.000 0.000 0.425 3000.000 0.000 0.077
63 1050.00 2000.00 35 461 96 0.425 2000.000 0.000 0.425 3000.000 0.000 0.077
64 1066.67 2000.00 40 425 94 0.425 2000.000 0.000 0.425 3000.000 0.000 0.077
65 1083.34 2000.00 39 484 96 0.425 2000.000 0.000 0.425 3000.000 0.000 0.077
66 1100.00 2000.00 38 409 95 0.425 2000.000 0.000 0.425 3000.000 0.000 0.077
67 1116.67 2000.00 39 400 96 0.425 2000.000 0.000 0.425 3000.000 0.000 0.077
68 1133.34 2000.00 32 433 120 0.425 2000.000 0.000 0.425 3000.000 0.000 0.077
69 1150.00 2000.00 48 441 103 0.425 2000.000 0.000 0.425 3000.000 0.000 0.077
70 1166.67 2000.00 54 477 106 0.425 2000.000 0.000 0.425 3000.000 0.000 0.077
71 1183.34 2000.00 46 479 114 0.425 2000.000 0.000 0.425 3000.000 0.000 0.077
72 1200.00 2000.00 70 497 102 0.425 2000.000 0.000 0.425 3000.000 0.000 0.077
73 1216.67 2000.00 60 485 108 0.425 2000.000 0.000 0.425 3000.000 0.000 0.077
74 1233.34 2000.00 51 466 104 0.425 2000.000 0.000 0.425 3000.000 0.000 0.077
75 1250.00 2000.00 60 478 90 0.425 2000.000 0.000 0.425 3000.000 0.000 0.077
76 1266.67 2000.00 40 528 90 0.425 2000.000 0.000 0.425 3000.000 0.000 0.077
77 1283.34 2000.00 27 485 92 0.425 2000.000 0.000 0.425 3000.000 0.000 0.077
78 1300.00 2000.00 41 503 135 0.425 2000.000 0.000 0.425 3000.000 0.000 0.077
79 1316.67 2000.00 35 449 99 0.425 2000.000 0.000 0.425 3000.000 0.000 0.077
80 1333.34 2000.00 44 487 96 0.425 2000.000 0.000 0.425 3000.000 0.000 0.077
81 1350.00 2000.00 37 524 116 0.425 2000.000 0.000 0.425 3000.000 0.000 0.077
82 1366.67 2000.00 40 455 87 0.425 2000.000 0.000 0.425 3000.000 0.000 0.077
83 1383.34 2000.00 36 464 88 0.425 2000.000 0.000 0.425 3000.000 0.000 0.077
84 1400.00 2000.00 32 444 111 0.425 2000.000 0.000 0.425 3000.000 0.000 0.077
85 1416.67 2000.00 27 489 133 0.425 2000.000 0.000 0.425 3000.000 0.000 0.077
86 1433.34 2000.00 29 453 118 0.425 2000.000 0.000 0.425 3000.000 0.000 0.077
87 1450.00 2000.00 41 499 130 0.425 2000.000 0.000 0.425 3000.000 0.000 0.077
88 1466.67 2000.00 36 482 143 0.425 2000.000 0.000 0.425 3000.000 0.000 0.077
89 1483.34 2000.00 47 517 135 0.425 2000.000 0.000 0.425 3000.000 0.000 0.077
90 1500.00 2000.00 57 477 144 0.425 2000.000 0.000 0.425 3000.000 0.000 0.077
91 1516.67 2000.00 46 458 130 0.425 2000.000 0.000 0.425 3000.000 0.000 0.077
92 1533.34 2000.00 47 474 126 0.425 2000.000 0.000 0.425 3000.000 0.000 0.077
93 1550.00 2000.00 35 483 116 0.425 2000.000 0.000 0.425 3000.000 0.000 0.077
94 1566.67 2000.00 51 491 114 0.425 2000.000 0.000 0.425 3000.000 0.000 0.077
95 1583.34 2000.00 42 482 127 0.425 2000.000 0.000 0.425 3000.000 0.000 0.077
96 1600.00 2000.00 40 508 121 0.425 2000.000 0.000 0.425 3000.000 0.000 0.077
97 1616.67 2000.00 44 478 89 0.425 2000.000 0.000 0.425 3000.000 0.000 0.077
98 1633.34 2000.00 54 483 102 0.425 2000.000 0.000 0.425 3000.000 0.000 0.077
99 1650.00 2000.00 50 461 88 0.425 2000.000 0.000 0.425 3000.000 0.000 0.077
100 1666.67 2000.00 41 443 83 0.425 2000.000 0.000 0.425 3000.000 0.000 0.077
101 1683.34 2000.00 53 418 86 0.425 2000.000 0.000 0.425 3000.000 0.000 0.077
102 1700.00 2000.00 36 420 82 0.425 2000.000 0.000 0.425 3000.000 0.000 0.077
103 1716.67 2000.00 49 419 66 0.425 2000.000 0.000 0.425 3000.000 0.000 0.077
104 1733.34 2000.00 42 421 80 0.425 2000.000 0.000 0.425 3000.000 0.000 0.077
105 1750.00 2000.00 44 417 80 0.425 2000.000 0.000 0.425 3000.000 0.000 0.077
106 1766.67 2000.00 38 438 92 0.425 2000.000 0.000 0.425 3000.000 0.000 0.077
107 1783.34 2000.00 43 446 104 0.425 2000.000 0.000 0.425 3000.000 0.000 0.077
108 1800.00 2000.00 43 468 97 0.425 2000.000 0.000 0.425 3000.000 0.000 0.077
109 1816.67 2000.00 37 462 100 0.425 2000.000 0.000 0.425 3000.000 0.000 0.077
110 1833.34 2000.00 43 459 121 0.425 2000.000 0.000 0.425 3000.000 0.000 0.077
111 1850.00 2000.00 47 474 127 0.425 2000.000 0.000 0.425 3000.000 0.000 0.077
112 1866.67 2000.00 43 554 132 0.425 2000.000 0.000 0.425 3000.000 0.000 0.077
113 1883.34 2000.00 44 518 129 0.425 2000.000 0.000 0.425 3000.000 0.000 0.077
114 1900.00 2000.00 41 486 130 0.425 2000.000 0.000 0.425 3000.000 0.000 0.077
115 1916.67 2000.00 51 510 136 0.425 2000.000 0.000 0.425 3000.000 0.000 0.077
116 1933.34 2000.00 41 493 121 0.425 2000.000 0.000 0.425 3000.000 0.000 0.077
117 1950.00 2000.00 35 529 137 0.425 2000.000 0.000 0.425 3000.000 0.000 0.077
118 1966.67 2000.00 31 488 121 0.425 2000.000 0.000 0.425 3000.000 0.000 0.077
119 1983.34 2000.00 32 471 96 0.425 2000.000 0.000 0.425 3000.000 0.000 0.077
