# BinNR microsec tot-time (s)  O-Beam H-beam AUX Ampl1(V) f1(Hz) phase1(deg) Ampl1(V) f1(Hz) phase1(deg) chi(pos)
0 0.00 2000.00 70 438 102 0.425 2000.000 0.000 0.425 3000.000 0.000 1.208
1 16.67 2000.00 48 455 120 0.425 2000.000 0.000 0.425 3000.000 0.000 1.208
2 33.33 2000.00 50 468 122 0.425 2000.000 0.000 0.425 3000.000 0.000 1.208
3 50.00 2000.00 60 466 127 0.425 2000.000 0.000 0.425 3000.000 0.000 1.208
4 66.67 2000.00 69 496 117 0.425 2000.000 0.000 0.425 3000.000 0.000 1.208
5 83.33 2000.00 48 512 128 0.425 2000.000 0.000 0.425 3000.000 0.000 1.208
6 100.00 2000.00 48 503 113 0.425 2000.000 0.000 0.425 3000.000 0.000 1.208
7 116.67 2000.00 41 457 118 0.425 2000.000 0.000 0.425 3000.000 0.000 1.208
8 133.33 2000.00 52 524 130 0.425 2000.000 0.000 0.425 3000.000 0.000 1.208
9 150.00 2000.00 42 470 106 0.425 2000.000 0.000 0.425 3000.000 0.000 1.208
10 166.67 2000.00 43 472 112 0.425 2000.000 0.000 0.425 3000.000 0.000 1.208
11 183.33 2000.00 35 477 106 0.425 2000.000 0.000 0.425 3000.000 0.000 1.208
12 200.00 2000.00 36 479 127 0.425 2000.000 0.000 0.425 3000.000 0.000 1.208
13 216.67 2000.00 35 448 111 0.425 2000.000 0.000 0.425 3000.000 0.000 1.208
14 233.33 2000.00 39 446 138 0.425 2000.000 0.000 0.425 3000.000 0.000 1.208
15 250.00 2000.00 40 510 103 0.425 2000.000 0.000 0.425 3000.000 0.000 1.208
16 266.67 2000.00 37 467 136 0.425 2000.000 0.000 0.425 3000.000 0.000 1.208
17 283.33 2000.00 48 442 119 0.425 2000.000 0.000 0.425 3000.000 0.000 1.208
18 300.00 2000.00 62 447 134 0.425 2000.000 0.000 0.425 3000.000 0.000 1.208
19 316.67 2000.00 50 438 139 0.425 2000.000 0.000 0.425 3000.000 0.000 1.208
20 333.33 2000.00 59 461 129 0.425 2000.000 0.000 0.425 3000.000 0.000 1.208
21 350.00 2000.00 52 441 138 0.425 2000.000 0.000 0.425 3000.000 0.000 1.208
22 366.67 2000.00 61 430 127 0.425 2000.000 0.000 0.425 3000.000 0.000 1.208
23 383.33 2000.00 46 472 116 0.425 2000.000 0.000 0.425 3000.000 0.000 1.208
24 400.00 2000.00 59 456 119 0.425 2000.000 0.000 0.425 3000.000 0.000 1.208
25 416.67 2000.00 59 470 101 0.425 2000.000 0.000 0.425 3000.000 0.000 1.208
26 433.33 2000.00 65 453 93 0.425 2000.000 0.000 0.425 3000.000 0.000 1.208
27 450.00 2000.00 58 471 97 0.425 2000.000 0.000 0.425 3000.000 0.000 1.208
28 466.67 2000.00 64 507 79 0.425 2000.000 0.000 0.425 3000.000 0.000 1.208
29 483.33 2000.00 47 456 87 0.425 2000.000 0.000 0.425 3000.000 0.000 1.208
30 500.00 2000.00 61 398 96 0.425 2000.000 0.000 0.425 3000.000 0.000 1.208
31 516.67 2000.00 46 446 93 0.425 2000.000 0.000 0.425 3000.000 0.000 1.208
32 533.33 2000.00 43 482 101 0.425 2000.000 0.000 0.425 3000.000 0.000 1.208
33 550.00 2000.00 34 422 102 0.425 2000.000 0.000 0.425 3000.000 0.000 1.208
34 566.67 2000.00 41 501 117 0.425 2000.000 0.000 0.425 3000.000 0.000 1.208
35 583.33 2000.00 53 477 110 0.425 2000.000 0.000 0.425 3000.000 0.000 1.208
36 600.00 2000.00 37 439 129 0.425 2000.000 0.000 0.425 3000.000 0.000 1.208
37 616.67 2000.00 43 451 125 0.425 2000.000 0.000 0.425 3000.000 0.000 1.208
38 633.33 2000.00 41 493 134 0.425 2000.000 0.000 0.425 3000.000 0.000 1.208
39 650.00 2000.00 38 461 120 0.425 2000.000 0.000 0.425 3000.000 0.000 1.208
40 666.67 2000.00 44 469 159 0.425 2000.000 0.000 0.425 3000.000 0.000 1.208
41 683.33 2000.00 39 498 165 0.425 2000.000 0.000 0.425 3000.000 0.000 1.208
42 700.00 2000.00 51 530 142 0.425 2000.000 0.000 0.425 3000.000 0.000 1.208
43 716.67 2000.00 59 528 131 0.425 2000.000 0.000 0.425 3000.000 0.000 1.208
44 733.33 2000.00 52 479 150 0.425 2000.000 0.000 0.425 3000.000 0.000 1.208
45 750.00 2000.00 51 464 143 0.425 2000.000 0.000 0.425 3000.000 0.000 1.208
46 766.67 2000.00 62 507 130 0.425 2000.000 0.000 0.425 3000.000 0.000 1.208
47 783.33 2000.00 42 486 112 0.425 2000.000 0.000 0.425 3000.000 0.000 1.208
48 800.00 2000.00 64 475 101 0.425 2000.000 0.000 0.425 3000.000 0.000 1.208
49 816.67 2000.00 45 477 101 0.425 2000.000 0.000 0.425 3000.000 0.000 1.208
50 833.34 2000.00 56 431 100 0.425 2000.000 0.000 0.425 3000.000 0.000 1.208
51 850.00 2000.00 63 421 91 0.425 2000.000 0.000 0.425 3000.000 0.000 1.208
52 866.67 2000.00 50 429 101 0.425 2000.000 0.000 0.425 3000.000 0.000 1.208
53 883.34 2000.00 51 410 99 0.425 2000.000 0.000 0.425 3000.000 0.000 1.208
54 900.00 2000.00 51 438 106 0.425 2000.000 0.000 0.425 3000.000 0.000 1.208
55 916.67 2000.00 49 406 104 0.425 2000.000 0.000 0.425 3000.000 0.000 1.208
56 933.34 2000.00 53 395 108 0.425 2000.000 0.000 0.425 3000.000 0.000 1.208
57 950.00 2000.00 50 424 107 0.425 2000.000 0.000 0.425 3000.000 0.000 1.208
58 966.67 2000.00 48 402 96 0.425 2000.000 0.000 0.425 3000.000 0.000 1.208
59 983.34 2000.00 60 431 114 0.425 2000.000 0.000 0.425 3000.000 0.000 1.208
60 1000.00 2000.00 56 485 107 0.425 2000.000 0.000 0.425 3000.000 0.000 1.208
61 1016.67 2000.00 52 412 116 0.425 2000.000 0.000 0.425 3000.000 0.000 1.208
62 1033.34 2000.00 50 489 132 0.425 2000.000 0.000 0.425 3000.000 0.000 1.208
63 1050.00 2000.00 49 434 122 0.425 2000.000 0.000 0.425 3000.000 0.000 1.208
64 1066.67 2000.00 45 451 120 0.425 2000.000 0.000 0.425 3000.000 0.000 1.208
65 1083.34 2000.00 56 489 121 0.425 2000.000 0.000 0.425 3000.000 0.000 1.208
66 1100.00 2000.00 46 450 121 0.425 2000.000 0.000 0.425 3000.000 0.000 1.208
67 1116.67 2000.00 57 461 101 0.425 2000.000 0.000 0.425 3000.000 0.000 1.208
68 1133.34 2000.00 54 504 120 0.425 2000.000 0.000 0.425 3000.000 0.000 1.208
69 1150.00 2000.00 47 507 129 0.425 2000.000 0.000 0.425 3000.000 0.000 1.208
70 1166.67 2000.00 40 476 119 0.425 2000.000 0.000 0.425 3000.000 0.000 1.208
71 1183.34 2000.00 41 433 112 0.425 2000.000 0.000 0.425 3000.000 0.000 1.208
72 1200.00 2000.00 44 458 120 0.425 2000.000 0.000 0.425 3000.000 0.000 1.208
73 1216.67 2000.00 35 455 105 0.425 2000.000 0.000 0.425 3000.000 0.000 1.208
74 1233.34 2000.00 43 419 121 0.425 2000.000 0.000 0.425 3000.000 0.000 1.208
75 1250.00 2000.00 37 445 141 0.425 2000.000 0.000 0.425 3000.000 0.000 1.208
76 1266.67 2000.00 38 426 117 0.425 2000.000 0.000 0.425 3000.000 0.000 1.208
77 1283.34 2000.00 44 484 144 0.425 2000.000 0.000 0.425 3000.000 0.000 1.208
78 1300.00 2000.00 54 471 121 0.425 2000.000 0.000 0.425 3000.000 0.000 1.208
79 1316.67 2000.00 48 464 131 0.425 2000.000 0.000 0.425 3000.000 0.000 1.208
80 1333.34 2000.00 61 501 117 0.425 2000.000 0.000 0.425 3000.000 0.000 1.208
81 1350.00 2000.00 44 409 133 0.425 2000.000 0.000 0.425 3000.000 0.000 1.208
82 1366.67 2000.00 60 455 105 0.425 2000.000 0.000 0.425 3000.000 0.000 1.208
83 1383.34 2000.00 63 446 123 0.425 2000.000 0.000 0.425 3000.000 0.000 1.208
84 1400.00 2000.00 70 483 115 0.425 2000.000 0.000 0.425 3000.000 0.000 1.208
85 1416.67 2000.00 64 473 116 0.425 2000.000 0.000 0.425 3000.000 0.000 1.208
86 1433.34 2000.00 74 395 105 0.425 2000.000 0.000 0.425 3000.000 0.000 1.208
87 1450.00 2000.00 56 431 103 0.425 2000.000 0.000 0.425 3000.000 0.000 1.208
88 1466.67 2000.00 63 436 105 0.425 2000.000 0.000 0.425 3000.000 0.000 1.208
89 1483.34 2000.00 46 437 85 0.425 2000.000 0.000 0.425 3000.000 0.000 1.208
90 1500.00 2000.00 43 425 83 0.425 2000.000 0.000 0.425 3000.000 0.000 1.208
91 1516.67 2000.00 54 426 99 0.425 2000.000 0.000 0.425 3000.000 0.000 1.208
92 1533.34 2000.00 31 479 95 0.425 2000.000 0.000 0.425 3000.000 0.000 1.208
93 1550.00 2000.00 40 421 99 0.425 2000.000 0.000 0.425 3000.000 0.000 1.208
94 1566.67 2000.00 41 425 112 0.425 2000.000 0.000 0.425 3000.000 0.000 1.208
95 1583.34 2000.00 41 453 108 0.425 2000.000 0.000 0.425 3000.000 0.000 1.208
96 1600.00 2000.00 31 451 122 0.425 2000.000 0.000 0.425 3000.000 0.000 1.208
97 1616.67 2000.00 33 453 110 0.425 2000.000 0.000 0.425 3000.000 0.000 1.208
98 1633.34 2000.00 31 433 127 0.425 2000.000 0.000 0.425 3000.000 0.000 1.208
99 1650.00 2000.00 37 505 146 0.425 2000.000 0.000 0.425 3000.000 0.000 1.208
100 1666.67 2000.00 56 472 142 0.425 2000.000 0.000 0.425 3000.000 0.000 1.208
101 1683.34 2000.00 33 456 122 0.425 2000.000 0.000 0.425 3000.000 0.000 1.208
102 1700.00 2000.00 42 464 168 0.425 2000.000 0.000 0.425 3000.000 0.000 1.208
103 1716.67 2000.00 56 480 131 0.425 2000.000 0.000 0.425 3000.000 0.000 1.208
104 1733.34 2000.00 44 496 153 0.425 2000.000 0.000 0.425 3000.000 0.000 1.208
105 1750.00 2000.00 52 507 136 0.425 2000.000 0.000 0.425 3000.000 0.000 1.208
106 1766.67 2000.00 46 508 125 0.425 2000.000 0.000 0.425 3000.000 0.000 1.208
107 1783.34 2000.00 32 502 107 0.425 2000.000 0.000 0.425 3000.000 0.000 1.208
108 1800.00 2000.00 49 459 91 0.425 2000.000 0.000 0.425 3000.000 0.000 1.208
109 1816.67 2000.00 46 450 110 0.425 2000.000 0.000 0.425 3000.000 0.000 1.208
110 1833.34 2000.00 46 434 91 0.425 2000.000 0.000 0.425 3000.000 0.000 1.208
111 1850.00 2000.00 46 460 101 0.425 2000.000 0.000 0.425 3000.000 0.000 1.208
112 1866.67 2000.00 50 452 99 0.425 2000.000 0.000 0.425 3000.000 0.000 1.208
113 1883.34 2000.00 49 424 76 0.425 2000.000 0.000 0.425 3000.000 0.000 1.208
114 1900.00 2000.00 48 401 74 0.425 2000.000 0.000 0.425 3000.000 0.000 1.208
115 1916.67 2000.00 38 418 100 0.425 2000.000 0.000 0.425 3000.000 0.000 1.208
116 1933.34 2000.00 49 443 103 0.425 2000.000 0.000 0.425 3000.000 0.000 1.208
117 1950.00 2000.00 53 432 113 0.425 2000.000 0.000 0.425 3000.000 0.000 1.208
118 1966.67 2000.00 53 409 116 0.425 2000.000 0.000 0.425 3000.000 0.000 1.208
119 1983.34 2000.00 46 394 101 0.425 2000.000 0.000 0.425 3000.000 0.000 1.208
