# BinNR microsec tot-time (s)  O-Beam AUX Ampl(V) f(Hz) phase(deg) chi(pos)
1 1.00 1200.00 205 432 5.000 110000.000 0.000 -0.626
2 2.00 1200.00 196 468 5.000 110000.000 0.000 -0.626
3 3.00 1200.00 183 393 5.000 110000.000 0.000 -0.626
4 4.00 1200.00 170 456 5.000 110000.000 0.000 -0.626
5 5.00 1200.00 174 406 5.000 110000.000 0.000 -0.626
6 6.00 1200.00 169 418 5.000 110000.000 0.000 -0.626
7 7.00 1200.00 176 393 5.000 110000.000 0.000 -0.626
8 8.00 1200.00 155 391 5.000 110000.000 0.000 -0.626
9 9.00 1200.00 168 405 5.000 110000.000 0.000 -0.626
10 10.00 1200.00 169 410 5.000 110000.000 0.000 -0.626
11 11.00 1200.00 173 389 5.000 110000.000 0.000 -0.626
12 12.00 1200.00 167 439 5.000 110000.000 0.000 -0.626
13 13.00 1200.00 179 357 5.000 110000.000 0.000 -0.626
14 14.00 1200.00 188 402 5.000 110000.000 0.000 -0.626
15 15.00 1200.00 183 357 5.000 110000.000 0.000 -0.626
16 16.00 1200.00 180 377 5.000 110000.000 0.000 -0.626
17 17.00 1200.00 171 353 5.000 110000.000 0.000 -0.626
18 18.00 1200.00 181 365 5.000 110000.000 0.000 -0.626
19 19.00 1200.00 165 353 5.000 110000.000 0.000 -0.626
20 20.00 1200.00 191 358 5.000 110000.000 0.000 -0.626
21 21.00 1200.00 148 370 5.000 110000.000 0.000 -0.626
22 22.00 1200.00 178 397 5.000 110000.000 0.000 -0.626
23 23.00 1200.00 174 342 5.000 110000.000 0.000 -0.626
24 24.00 1200.00 187 408 5.000 110000.000 0.000 -0.626
25 25.00 1200.00 167 331 5.000 110000.000 0.000 -0.626
26 26.00 1200.00 185 359 5.000 110000.000 0.000 -0.626
27 27.00 1200.00 158 346 5.000 110000.000 0.000 -0.626
28 28.00 1200.00 177 383 5.000 110000.000 0.000 -0.626
29 29.00 1200.00 181 361 5.000 110000.000 0.000 -0.626
30 30.00 1200.00 184 385 5.000 110000.000 0.000 -0.626
31 31.00 1200.00 160 372 5.000 110000.000 0.000 -0.626
32 32.00 1200.00 178 388 5.000 110000.000 0.000 -0.626
33 33.00 1200.00 156 334 5.000 110000.000 0.000 -0.626
34 34.00 1200.00 176 383 5.000 110000.000 0.000 -0.626
35 35.00 1200.00 171 377 5.000 110000.000 0.000 -0.626
36 36.00 1200.00 200 364 5.000 110000.000 0.000 -0.626
37 37.00 1200.00 164 377 5.000 110000.000 0.000 -0.626
38 38.00 1200.00 198 403 5.000 110000.000 0.000 -0.626
39 39.00 1200.00 165 372 5.000 110000.000 0.000 -0.626
40 40.00 1200.00 214 404 5.000 110000.000 0.000 -0.626
41 41.00 1200.00 166 339 5.000 110000.000 0.000 -0.626
42 42.00 1200.00 159 404 5.000 110000.000 0.000 -0.626
43 43.00 1200.00 172 383 5.000 110000.000 0.000 -0.626
44 44.00 1200.00 195 397 5.000 110000.000 0.000 -0.626
45 45.00 1200.00 170 358 5.000 110000.000 0.000 -0.626
46 46.00 1200.00 176 387 5.000 110000.000 0.000 -0.626
47 47.00 1200.00 180 373 5.000 110000.000 0.000 -0.626
48 48.00 1200.00 183 419 5.000 110000.000 0.000 -0.626
49 49.00 1200.00 161 361 5.000 110000.000 0.000 -0.626
50 50.00 1200.00 165 376 5.000 110000.000 0.000 -0.626
51 51.00 1200.00 169 384 5.000 110000.000 0.000 -0.626
52 52.00 1200.00 168 437 5.000 110000.000 0.000 -0.626
53 53.00 1200.00 182 384 5.000 110000.000 0.000 -0.626
54 54.00 1200.00 188 437 5.000 110000.000 0.000 -0.626
55 55.00 1200.00 169 372 5.000 110000.000 0.000 -0.626
56 56.00 1200.00 159 396 5.000 110000.000 0.000 -0.626
57 57.00 1200.00 175 378 5.000 110000.000 0.000 -0.626
58 58.00 1200.00 187 381 5.000 110000.000 0.000 -0.626
59 59.00 1200.00 155 401 5.000 110000.000 0.000 -0.626
60 60.00 1200.00 194 426 5.000 110000.000 0.000 -0.626
61 61.00 1200.00 152 422 5.000 110000.000 0.000 -0.626
62 62.00 1200.00 168 394 5.000 110000.000 0.000 -0.626
63 63.00 1200.00 159 350 5.000 110000.000 0.000 -0.626
64 64.00 1200.00 171 382 5.000 110000.000 0.000 -0.626
65 65.00 1200.00 171 359 5.000 110000.000 0.000 -0.626
66 66.00 1200.00 203 427 5.000 110000.000 0.000 -0.626
67 67.00 1200.00 184 369 5.000 110000.000 0.000 -0.626
68 68.00 1200.00 182 374 5.000 110000.000 0.000 -0.626
69 69.00 1200.00 190 362 5.000 110000.000 0.000 -0.626
70 70.00 1200.00 182 444 5.000 110000.000 0.000 -0.626
71 71.00 1200.00 188 352 5.000 110000.000 0.000 -0.626
72 72.00 1200.00 182 372 5.000 110000.000 0.000 -0.626
73 73.00 1200.00 166 376 5.000 110000.000 0.000 -0.626
74 74.00 1200.00 166 382 5.000 110000.000 0.000 -0.626
75 75.00 1200.00 181 338 5.000 110000.000 0.000 -0.626
76 76.00 1200.00 189 402 5.000 110000.000 0.000 -0.626
77 77.00 1200.00 177 416 5.000 110000.000 0.000 -0.626
78 78.00 1200.00 164 411 5.000 110000.000 0.000 -0.626
79 79.00 1200.00 184 355 5.000 110000.000 0.000 -0.626
80 80.00 1200.00 175 400 5.000 110000.000 0.000 -0.626
81 81.00 1200.00 180 378 5.000 110000.000 0.000 -0.626
82 82.00 1200.00 175 357 5.000 110000.000 0.000 -0.626
83 83.00 1200.00 190 363 5.000 110000.000 0.000 -0.626
84 84.00 1200.00 190 416 5.000 110000.000 0.000 -0.626
85 85.00 1200.00 190 391 5.000 110000.000 0.000 -0.626
86 86.00 1200.00 207 399 5.000 110000.000 0.000 -0.626
87 87.00 1200.00 191 353 5.000 110000.000 0.000 -0.626
88 88.00 1200.00 184 393 5.000 110000.000 0.000 -0.626
89 89.00 1200.00 207 356 5.000 110000.000 0.000 -0.626
90 90.00 1200.00 165 366 5.000 110000.000 0.000 -0.626
91 91.00 1200.00 182 326 5.000 110000.000 0.000 -0.626
92 92.00 1200.00 189 325 5.000 110000.000 0.000 -0.626
93 93.00 1200.00 190 307 5.000 110000.000 0.000 -0.626
94 94.00 1200.00 163 323 5.000 110000.000 0.000 -0.626
95 95.00 1200.00 166 316 5.000 110000.000 0.000 -0.626
96 96.00 1200.00 212 388 5.000 110000.000 0.000 -0.626
97 97.00 1200.00 167 414 5.000 110000.000 0.000 -0.626
98 98.00 1200.00 163 471 5.000 110000.000 0.000 -0.626
99 99.00 1200.00 170 441 5.000 110000.000 0.000 -0.626
100 100.00 1200.00 190 467 5.000 110000.000 0.000 -0.626
101 101.00 1200.00 186 473 5.000 110000.000 0.000 -0.626
102 102.00 1200.00 175 500 5.000 110000.000 0.000 -0.626
