# BinNR microsec tot-time (s)  O-Beam AUX Ampl(V) f(Hz) phase(deg) chi(pos)
1 1.00 1200.00 144 284 5.000 80000.000 0.000 -0.626
2 2.00 1200.00 161 259 5.000 80000.000 0.000 -0.626
3 3.00 1200.00 166 257 5.000 80000.000 0.000 -0.626
4 4.00 1200.00 159 271 5.000 80000.000 0.000 -0.626
5 5.00 1200.00 207 219 5.000 80000.000 0.000 -0.626
6 6.00 1200.00 164 284 5.000 80000.000 0.000 -0.626
7 7.00 1200.00 156 263 5.000 80000.000 0.000 -0.626
8 8.00 1200.00 154 303 5.000 80000.000 0.000 -0.626
9 9.00 1200.00 158 302 5.000 80000.000 0.000 -0.626
10 10.00 1200.00 149 275 5.000 80000.000 0.000 -0.626
11 11.00 1200.00 152 305 5.000 80000.000 0.000 -0.626
12 12.00 1200.00 154 290 5.000 80000.000 0.000 -0.626
13 13.00 1200.00 136 246 5.000 80000.000 0.000 -0.626
14 14.00 1200.00 161 239 5.000 80000.000 0.000 -0.626
15 15.00 1200.00 164 240 5.000 80000.000 0.000 -0.626
16 16.00 1200.00 168 240 5.000 80000.000 0.000 -0.626
17 17.00 1200.00 128 198 5.000 80000.000 0.000 -0.626
18 18.00 1200.00 168 240 5.000 80000.000 0.000 -0.626
19 19.00 1200.00 150 215 5.000 80000.000 0.000 -0.626
20 20.00 1200.00 165 266 5.000 80000.000 0.000 -0.626
21 21.00 1200.00 168 283 5.000 80000.000 0.000 -0.626
22 22.00 1200.00 150 276 5.000 80000.000 0.000 -0.626
23 23.00 1200.00 140 254 5.000 80000.000 0.000 -0.626
24 24.00 1200.00 159 283 5.000 80000.000 0.000 -0.626
25 25.00 1200.00 147 245 5.000 80000.000 0.000 -0.626
26 26.00 1200.00 182 228 5.000 80000.000 0.000 -0.626
27 27.00 1200.00 154 214 5.000 80000.000 0.000 -0.626
28 28.00 1200.00 158 221 5.000 80000.000 0.000 -0.626
29 29.00 1200.00 132 213 5.000 80000.000 0.000 -0.626
30 30.00 1200.00 149 223 5.000 80000.000 0.000 -0.626
31 31.00 1200.00 160 256 5.000 80000.000 0.000 -0.626
32 32.00 1200.00 178 251 5.000 80000.000 0.000 -0.626
33 33.00 1200.00 150 288 5.000 80000.000 0.000 -0.626
34 34.00 1200.00 135 290 5.000 80000.000 0.000 -0.626
35 35.00 1200.00 149 273 5.000 80000.000 0.000 -0.626
36 36.00 1200.00 150 285 5.000 80000.000 0.000 -0.626
37 37.00 1200.00 152 257 5.000 80000.000 0.000 -0.626
38 38.00 1200.00 178 265 5.000 80000.000 0.000 -0.626
39 39.00 1200.00 150 240 5.000 80000.000 0.000 -0.626
40 40.00 1200.00 191 240 5.000 80000.000 0.000 -0.626
41 41.00 1200.00 137 232 5.000 80000.000 0.000 -0.626
42 42.00 1200.00 159 210 5.000 80000.000 0.000 -0.626
43 43.00 1200.00 124 243 5.000 80000.000 0.000 -0.626
44 44.00 1200.00 164 261 5.000 80000.000 0.000 -0.626
45 45.00 1200.00 135 268 5.000 80000.000 0.000 -0.626
46 46.00 1200.00 153 295 5.000 80000.000 0.000 -0.626
47 47.00 1200.00 152 312 5.000 80000.000 0.000 -0.626
48 48.00 1200.00 151 274 5.000 80000.000 0.000 -0.626
49 49.00 1200.00 132 265 5.000 80000.000 0.000 -0.626
50 50.00 1200.00 192 275 5.000 80000.000 0.000 -0.626
51 51.00 1200.00 145 264 5.000 80000.000 0.000 -0.626
52 52.00 1200.00 149 261 5.000 80000.000 0.000 -0.626
53 53.00 1200.00 145 251 5.000 80000.000 0.000 -0.626
54 54.00 1200.00 157 246 5.000 80000.000 0.000 -0.626
55 55.00 1200.00 143 212 5.000 80000.000 0.000 -0.626
56 56.00 1200.00 151 231 5.000 80000.000 0.000 -0.626
57 57.00 1200.00 147 238 5.000 80000.000 0.000 -0.626
58 58.00 1200.00 161 262 5.000 80000.000 0.000 -0.626
59 59.00 1200.00 165 272 5.000 80000.000 0.000 -0.626
60 60.00 1200.00 155 329 5.000 80000.000 0.000 -0.626
61 61.00 1200.00 150 299 5.000 80000.000 0.000 -0.626
62 62.00 1200.00 154 306 5.000 80000.000 0.000 -0.626
63 63.00 1200.00 148 251 5.000 80000.000 0.000 -0.626
64 64.00 1200.00 158 240 5.000 80000.000 0.000 -0.626
65 65.00 1200.00 147 236 5.000 80000.000 0.000 -0.626
66 66.00 1200.00 158 240 5.000 80000.000 0.000 -0.626
67 67.00 1200.00 150 211 5.000 80000.000 0.000 -0.626
68 68.00 1200.00 167 229 5.000 80000.000 0.000 -0.626
69 69.00 1200.00 155 250 5.000 80000.000 0.000 -0.626
70 70.00 1200.00 177 292 5.000 80000.000 0.000 -0.626
71 71.00 1200.00 184 273 5.000 80000.000 0.000 -0.626
72 72.00 1200.00 180 298 5.000 80000.000 0.000 -0.626
73 73.00 1200.00 161 254 5.000 80000.000 0.000 -0.626
74 74.00 1200.00 180 303 5.000 80000.000 0.000 -0.626
75 75.00 1200.00 150 238 5.000 80000.000 0.000 -0.626
76 76.00 1200.00 164 281 5.000 80000.000 0.000 -0.626
77 77.00 1200.00 152 254 5.000 80000.000 0.000 -0.626
78 78.00 1200.00 154 256 5.000 80000.000 0.000 -0.626
79 79.00 1200.00 157 231 5.000 80000.000 0.000 -0.626
80 80.00 1200.00 167 234 5.000 80000.000 0.000 -0.626
81 81.00 1200.00 145 258 5.000 80000.000 0.000 -0.626
82 82.00 1200.00 186 239 5.000 80000.000 0.000 -0.626
83 83.00 1200.00 149 249 5.000 80000.000 0.000 -0.626
84 84.00 1200.00 159 303 5.000 80000.000 0.000 -0.626
85 85.00 1200.00 153 297 5.000 80000.000 0.000 -0.626
86 86.00 1200.00 177 268 5.000 80000.000 0.000 -0.626
87 87.00 1200.00 143 250 5.000 80000.000 0.000 -0.626
88 88.00 1200.00 173 266 5.000 80000.000 0.000 -0.626
89 89.00 1200.00 177 251 5.000 80000.000 0.000 -0.626
90 90.00 1200.00 153 235 5.000 80000.000 0.000 -0.626
91 91.00 1200.00 149 251 5.000 80000.000 0.000 -0.626
92 92.00 1200.00 149 225 5.000 80000.000 0.000 -0.626
93 93.00 1200.00 147 201 5.000 80000.000 0.000 -0.626
94 94.00 1200.00 146 213 5.000 80000.000 0.000 -0.626
95 95.00 1200.00 153 201 5.000 80000.000 0.000 -0.626
96 96.00 1200.00 171 237 5.000 80000.000 0.000 -0.626
97 97.00 1200.00 147 255 5.000 80000.000 0.000 -0.626
98 98.00 1200.00 176 298 5.000 80000.000 0.000 -0.626
99 99.00 1200.00 136 306 5.000 80000.000 0.000 -0.626
100 100.00 1200.00 174 365 5.000 80000.000 0.000 -0.626
101 101.00 1200.00 162 321 5.000 80000.000 0.000 -0.626
102 102.00 1200.00 160 359 5.000 80000.000 0.000 -0.626
