# BinNR microsec tot-time (s)  O-Beam AUX Ampl(V) f(Hz) phase(deg) chi(pos)
1 1.00 1200.01 150 343 5.000 90000.000 0.000 -0.626
2 2.00 1200.01 165 325 5.000 90000.000 0.000 -0.626
3 3.00 1200.01 146 287 5.000 90000.000 0.000 -0.626
4 4.00 1200.01 155 296 5.000 90000.000 0.000 -0.626
5 5.00 1200.01 147 282 5.000 90000.000 0.000 -0.626
6 6.00 1200.01 162 358 5.000 90000.000 0.000 -0.626
7 7.00 1200.01 154 348 5.000 90000.000 0.000 -0.626
8 8.00 1200.01 180 382 5.000 90000.000 0.000 -0.626
9 9.00 1200.01 164 327 5.000 90000.000 0.000 -0.626
10 10.00 1200.01 143 309 5.000 90000.000 0.000 -0.626
11 11.00 1200.01 144 297 5.000 90000.000 0.000 -0.626
12 12.00 1200.01 144 288 5.000 90000.000 0.000 -0.626
13 13.00 1200.01 150 255 5.000 90000.000 0.000 -0.626
14 14.00 1200.01 133 265 5.000 90000.000 0.000 -0.626
15 15.00 1200.01 166 271 5.000 90000.000 0.000 -0.626
16 16.00 1200.01 164 299 5.000 90000.000 0.000 -0.626
17 17.00 1200.01 139 308 5.000 90000.000 0.000 -0.626
18 18.00 1200.01 160 323 5.000 90000.000 0.000 -0.626
19 19.00 1200.01 166 328 5.000 90000.000 0.000 -0.626
20 20.00 1200.01 183 312 5.000 90000.000 0.000 -0.626
21 21.00 1200.01 168 294 5.000 90000.000 0.000 -0.626
22 22.00 1200.01 149 299 5.000 90000.000 0.000 -0.626
23 23.00 1200.01 160 267 5.000 90000.000 0.000 -0.626
24 24.00 1200.01 169 277 5.000 90000.000 0.000 -0.626
25 25.00 1200.01 135 265 5.000 90000.000 0.000 -0.626
26 26.00 1200.01 172 256 5.000 90000.000 0.000 -0.626
27 27.00 1200.01 176 260 5.000 90000.000 0.000 -0.626
28 28.00 1200.01 151 316 5.000 90000.000 0.000 -0.626
29 29.00 1200.01 158 294 5.000 90000.000 0.000 -0.626
30 30.00 1200.01 149 301 5.000 90000.000 0.000 -0.626
31 31.00 1200.01 148 294 5.000 90000.000 0.000 -0.626
32 32.00 1200.01 166 298 5.000 90000.000 0.000 -0.626
33 33.00 1200.01 181 291 5.000 90000.000 0.000 -0.626
34 34.00 1200.01 136 273 5.000 90000.000 0.000 -0.626
35 35.00 1200.01 131 273 5.000 90000.000 0.000 -0.626
36 36.00 1200.01 165 284 5.000 90000.000 0.000 -0.626
37 37.00 1200.01 156 243 5.000 90000.000 0.000 -0.626
38 38.00 1200.01 178 303 5.000 90000.000 0.000 -0.626
39 39.00 1200.01 161 271 5.000 90000.000 0.000 -0.626
40 40.00 1200.01 162 299 5.000 90000.000 0.000 -0.626
41 41.00 1200.01 166 286 5.000 90000.000 0.000 -0.626
42 42.00 1200.01 152 328 5.000 90000.000 0.000 -0.626
43 43.00 1200.01 153 257 5.000 90000.000 0.000 -0.626
44 44.00 1200.01 158 295 5.000 90000.000 0.000 -0.626
45 45.00 1200.01 153 277 5.000 90000.000 0.000 -0.626
46 46.00 1200.01 151 283 5.000 90000.000 0.000 -0.626
47 47.00 1200.01 163 260 5.000 90000.000 0.000 -0.626
48 48.00 1200.01 134 262 5.000 90000.000 0.000 -0.626
49 49.00 1200.01 146 277 5.000 90000.000 0.000 -0.626
50 50.00 1200.01 175 294 5.000 90000.000 0.000 -0.626
51 51.00 1200.01 142 318 5.000 90000.000 0.000 -0.626
52 52.00 1200.01 158 310 5.000 90000.000 0.000 -0.626
53 53.00 1200.01 150 326 5.000 90000.000 0.000 -0.626
54 54.00 1200.01 181 332 5.000 90000.000 0.000 -0.626
55 55.00 1200.01 158 281 5.000 90000.000 0.000 -0.626
56 56.00 1200.01 180 298 5.000 90000.000 0.000 -0.626
57 57.00 1200.01 150 290 5.000 90000.000 0.000 -0.626
58 58.00 1200.01 169 246 5.000 90000.000 0.000 -0.626
59 59.00 1200.01 149 248 5.000 90000.000 0.000 -0.626
60 60.00 1200.01 124 302 5.000 90000.000 0.000 -0.626
61 61.00 1200.01 142 301 5.000 90000.000 0.000 -0.626
62 62.00 1200.01 181 313 5.000 90000.000 0.000 -0.626
63 63.00 1200.01 151 302 5.000 90000.000 0.000 -0.626
64 64.00 1200.01 158 332 5.000 90000.000 0.000 -0.626
65 65.00 1200.01 155 282 5.000 90000.000 0.000 -0.626
66 66.00 1200.01 160 329 5.000 90000.000 0.000 -0.626
67 67.00 1200.01 161 272 5.000 90000.000 0.000 -0.626
68 68.00 1200.01 155 285 5.000 90000.000 0.000 -0.626
69 69.00 1200.01 143 276 5.000 90000.000 0.000 -0.626
70 70.00 1200.01 160 279 5.000 90000.000 0.000 -0.626
71 71.00 1200.01 154 276 5.000 90000.000 0.000 -0.626
72 72.00 1200.01 181 282 5.000 90000.000 0.000 -0.626
73 73.00 1200.01 163 316 5.000 90000.000 0.000 -0.626
74 74.00 1200.01 167 318 5.000 90000.000 0.000 -0.626
75 75.00 1200.01 172 280 5.000 90000.000 0.000 -0.626
76 76.00 1200.01 131 322 5.000 90000.000 0.000 -0.626
77 77.00 1200.01 152 284 5.000 90000.000 0.000 -0.626
78 78.00 1200.01 158 283 5.000 90000.000 0.000 -0.626
79 79.00 1200.01 156 267 5.000 90000.000 0.000 -0.626
80 80.00 1200.01 158 285 5.000 90000.000 0.000 -0.626
81 81.00 1200.01 165 250 5.000 90000.000 0.000 -0.626
82 82.00 1200.01 151 312 5.000 90000.000 0.000 -0.626
83 83.00 1200.01 135 284 5.000 90000.000 0.000 -0.626
84 84.00 1200.01 162 308 5.000 90000.000 0.000 -0.626
85 85.00 1200.01 156 291 5.000 90000.000 0.000 -0.626
86 86.00 1200.01 164 290 5.000 90000.000 0.000 -0.626
87 87.00 1200.01 180 277 5.000 90000.000 0.000 -0.626
88 88.00 1200.01 150 276 5.000 90000.000 0.000 -0.626
89 89.00 1200.01 138 256 5.000 90000.000 0.000 -0.626
90 90.00 1200.01 150 269 5.000 90000.000 0.000 -0.626
91 91.00 1200.01 172 224 5.000 90000.000 0.000 -0.626
92 92.00 1200.01 180 249 5.000 90000.000 0.000 -0.626
93 93.00 1200.01 152 206 5.000 90000.000 0.000 -0.626
94 94.00 1200.01 172 247 5.000 90000.000 0.000 -0.626
95 95.00 1200.01 173 230 5.000 90000.000 0.000 -0.626
96 96.00 1200.01 170 259 5.000 90000.000 0.000 -0.626
97 97.00 1200.01 140 293 5.000 90000.000 0.000 -0.626
98 98.00 1200.01 154 343 5.000 90000.000 0.000 -0.626
99 99.00 1200.01 149 369 5.000 90000.000 0.000 -0.626
100 100.00 1200.01 160 357 5.000 90000.000 0.000 -0.626
101 101.00 1200.01 147 425 5.000 90000.000 0.000 -0.626
102 102.00 1200.01 178 394 5.000 90000.000 0.000 -0.626
