# BinNR microsec tot-time (s)  O-Beam AUX Ampl(V) f(Hz) phase(deg) chi(pos)
0 0.00 1200.00 30 87 1.100 10000.000 0.000 -1.505
1 3.00 1200.00 83 170 1.100 10000.000 0.000 -1.505
2 6.00 1200.00 82 149 1.100 10000.000 0.000 -1.505
3 9.00 1200.00 70 139 1.100 10000.000 0.000 -1.505
4 12.00 1200.00 80 166 1.100 10000.000 0.000 -1.505
5 15.00 1200.00 75 146 1.100 10000.000 0.000 -1.505
6 18.00 1200.00 81 128 1.100 10000.000 0.000 -1.505
7 21.00 1200.00 67 125 1.100 10000.000 0.000 -1.505
8 24.00 1200.00 85 137 1.100 10000.000 0.000 -1.505
9 27.00 1200.00 82 136 1.100 10000.000 0.000 -1.505
10 30.00 1200.00 93 128 1.100 10000.000 0.000 -1.505
11 33.00 1200.00 84 139 1.100 10000.000 0.000 -1.505
12 36.00 1200.00 65 145 1.100 10000.000 0.000 -1.505
13 39.00 1200.00 79 136 1.100 10000.000 0.000 -1.505
14 42.00 1200.00 77 179 1.100 10000.000 0.000 -1.505
15 45.00 1200.00 63 183 1.100 10000.000 0.000 -1.505
16 48.00 1200.00 65 191 1.100 10000.000 0.000 -1.505
17 51.00 1200.00 66 193 1.100 10000.000 0.000 -1.505
18 54.00 1200.00 84 167 1.100 10000.000 0.000 -1.505
19 57.00 1200.00 83 163 1.100 10000.000 0.000 -1.505
20 60.00 1200.00 84 140 1.100 10000.000 0.000 -1.505
21 63.00 1200.00 69 159 1.100 10000.000 0.000 -1.505
22 66.00 1200.00 102 136 1.100 10000.000 0.000 -1.505
23 69.00 1200.00 79 116 1.100 10000.000 0.000 -1.505
24 72.00 1200.00 69 141 1.100 10000.000 0.000 -1.505
25 75.00 1200.00 78 112 1.100 10000.000 0.000 -1.505
26 78.00 1200.00 93 125 1.100 10000.000 0.000 -1.505
27 81.00 1200.00 84 110 1.100 10000.000 0.000 -1.505
28 84.00 1200.00 80 111 1.100 10000.000 0.000 -1.505
29 87.00 1200.00 63 120 1.100 10000.000 0.000 -1.505
30 90.00 1200.00 71 114 1.100 10000.000 0.000 -1.505
31 93.00 1200.00 93 102 1.100 10000.000 0.000 -1.505
32 96.00 1200.00 78 113 1.100 10000.000 0.000 -1.505
33 99.00 1200.00 93 124 1.100 10000.000 0.000 -1.505
34 102.00 1200.00 73 131 1.100 10000.000 0.000 -1.505
35 105.00 1200.00 83 119 1.100 10000.000 0.000 -1.505
36 108.00 1200.00 87 143 1.100 10000.000 0.000 -1.505
37 111.00 1200.00 74 131 1.100 10000.000 0.000 -1.505
38 114.00 1200.00 88 152 1.100 10000.000 0.000 -1.505
39 117.00 1200.00 73 142 1.100 10000.000 0.000 -1.505
40 120.00 1200.00 71 149 1.100 10000.000 0.000 -1.505
41 123.00 1200.00 75 146 1.100 10000.000 0.000 -1.505
42 126.00 1200.00 92 176 1.100 10000.000 0.000 -1.505
43 129.00 1200.00 88 169 1.100 10000.000 0.000 -1.505
44 132.00 1200.00 80 185 1.100 10000.000 0.000 -1.505
45 135.00 1200.00 88 192 1.100 10000.000 0.000 -1.505
46 138.00 1200.00 71 181 1.100 10000.000 0.000 -1.505
47 141.00 1200.00 92 169 1.100 10000.000 0.000 -1.505
48 144.00 1200.00 81 188 1.100 10000.000 0.000 -1.505
49 147.00 1200.00 60 162 1.100 10000.000 0.000 -1.505
50 150.00 1200.00 83 171 1.100 10000.000 0.000 -1.505
51 153.00 1200.00 73 175 1.100 10000.000 0.000 -1.505
52 156.00 1200.00 76 169 1.100 10000.000 0.000 -1.505
53 159.00 1200.00 91 131 1.100 10000.000 0.000 -1.505
54 162.00 1200.00 80 135 1.100 10000.000 0.000 -1.505
55 165.00 1200.00 63 133 1.100 10000.000 0.000 -1.505
56 168.00 1200.00 75 142 1.100 10000.000 0.000 -1.505
57 171.00 1200.00 92 115 1.100 10000.000 0.000 -1.505
58 174.00 1200.00 93 131 1.100 10000.000 0.000 -1.505
59 177.00 1200.00 80 124 1.100 10000.000 0.000 -1.505
60 180.00 1200.00 68 124 1.100 10000.000 0.000 -1.505
61 183.00 1200.00 86 104 1.100 10000.000 0.000 -1.505
62 186.00 1200.00 80 121 1.100 10000.000 0.000 -1.505
63 189.00 1200.00 89 101 1.100 10000.000 0.000 -1.505
64 192.00 1200.00 94 115 1.100 10000.000 0.000 -1.505
65 195.00 1200.00 75 121 1.100 10000.000 0.000 -1.505
66 198.00 1200.00 74 134 1.100 10000.000 0.000 -1.505
67 201.00 1200.00 84 111 1.100 10000.000 0.000 -1.505
68 204.00 1200.00 75 102 1.100 10000.000 0.000 -1.505
69 207.00 1200.00 69 128 1.100 10000.000 0.000 -1.505
70 210.00 1200.00 84 130 1.100 10000.000 0.000 -1.505
71 213.00 1200.00 84 142 1.100 10000.000 0.000 -1.505
72 216.00 1200.00 92 142 1.100 10000.000 0.000 -1.505
73 219.00 1200.00 75 127 1.100 10000.000 0.000 -1.505
74 222.00 1200.00 82 166 1.100 10000.000 0.000 -1.505
75 225.00 1200.00 85 152 1.100 10000.000 0.000 -1.505
76 228.00 1200.00 99 164 1.100 10000.000 0.000 -1.505
77 231.00 1200.00 82 153 1.100 10000.000 0.000 -1.505
78 234.00 1200.00 82 163 1.100 10000.000 0.000 -1.505
79 237.00 1200.00 85 175 1.100 10000.000 0.000 -1.505
80 240.00 1200.00 81 189 1.100 10000.000 0.000 -1.505
81 243.00 1200.00 87 155 1.100 10000.000 0.000 -1.505
82 246.00 1200.00 75 196 1.100 10000.000 0.000 -1.505
83 249.00 1200.00 62 171 1.100 10000.000 0.000 -1.505
84 252.00 1200.00 71 168 1.100 10000.000 0.000 -1.505
85 255.00 1200.00 89 168 1.100 10000.000 0.000 -1.505
86 258.00 1200.00 95 144 1.100 10000.000 0.000 -1.505
87 261.00 1200.00 72 164 1.100 10000.000 0.000 -1.505
88 264.00 1200.00 83 152 1.100 10000.000 0.000 -1.505
89 267.00 1200.00 82 132 1.100 10000.000 0.000 -1.505
90 270.00 1200.00 74 108 1.100 10000.000 0.000 -1.505
91 273.00 1200.00 73 122 1.100 10000.000 0.000 -1.505
92 276.00 1200.00 67 127 1.100 10000.000 0.000 -1.505
93 279.00 1200.00 90 107 1.100 10000.000 0.000 -1.505
94 282.00 1200.00 67 102 1.100 10000.000 0.000 -1.505
95 285.00 1200.00 73 108 1.100 10000.000 0.000 -1.505
96 288.00 1200.00 67 116 1.100 10000.000 0.000 -1.505
97 291.00 1200.00 74 113 1.100 10000.000 0.000 -1.505
98 294.00 1200.00 86 133 1.100 10000.000 0.000 -1.505
99 297.00 1200.00 77 128 1.100 10000.000 0.000 -1.505
100 300.00 1200.00 71 118 1.100 10000.000 0.000 -1.505
101 303.00 1200.00 80 126 1.100 10000.000 0.000 -1.505
102 306.00 1200.00 69 143 1.100 10000.000 0.000 -1.505
103 309.00 1200.00 58 148 1.100 10000.000 0.000 -1.505
104 312.00 1200.00 81 126 1.100 10000.000 0.000 -1.505
105 315.00 1200.00 75 162 1.100 10000.000 0.000 -1.505
106 318.00 1200.00 74 139 1.100 10000.000 0.000 -1.505
107 321.00 1200.00 77 168 1.100 10000.000 0.000 -1.505
108 324.00 1200.00 82 166 1.100 10000.000 0.000 -1.505
109 327.00 1200.00 72 172 1.100 10000.000 0.000 -1.505
110 330.00 1200.00 86 178 1.100 10000.000 0.000 -1.505
111 333.00 1200.00 75 174 1.100 10000.000 0.000 -1.505
112 336.00 1200.00 76 180 1.100 10000.000 0.000 -1.505
113 339.00 1200.00 82 165 1.100 10000.000 0.000 -1.505
114 342.00 1200.00 69 167 1.100 10000.000 0.000 -1.505
115 345.00 1200.00 61 174 1.100 10000.000 0.000 -1.505
116 348.00 1200.00 93 163 1.100 10000.000 0.000 -1.505
117 351.00 1200.00 83 152 1.100 10000.000 0.000 -1.505
118 354.00 1200.00 72 169 1.100 10000.000 0.000 -1.505
119 357.00 1200.00 72 169 1.100 10000.000 0.000 -1.505
120 360.00 1200.00 95 163 1.100 10000.000 0.000 -1.505
121 363.00 1200.00 81 141 1.100 10000.000 0.000 -1.505
122 366.00 1200.00 79 138 1.100 10000.000 0.000 -1.505
123 369.00 1200.00 82 121 1.100 10000.000 0.000 -1.505
124 372.00 1200.00 85 125 1.100 10000.000 0.000 -1.505
125 375.00 1200.00 86 123 1.100 10000.000 0.000 -1.505
126 378.00 1200.00 75 104 1.100 10000.000 0.000 -1.505
127 381.00 1200.00 83 114 1.100 10000.000 0.000 -1.505
128 384.00 1200.00 93 130 1.100 10000.000 0.000 -1.505
129 387.00 1200.00 88 97 1.100 10000.000 0.000 -1.505
130 390.00 1200.00 99 119 1.100 10000.000 0.000 -1.505
131 393.00 1200.00 91 111 1.100 10000.000 0.000 -1.505
132 396.00 1200.00 70 96 1.100 10000.000 0.000 -1.505
133 399.00 1200.00 87 114 1.100 10000.000 0.000 -1.505
134 402.00 1200.00 70 143 1.100 10000.000 0.000 -1.505
135 405.00 1200.00 86 123 1.100 10000.000 0.000 -1.505
136 408.00 1200.00 68 122 1.100 10000.000 0.000 -1.505
137 411.00 1200.00 87 136 1.100 10000.000 0.000 -1.505
138 414.00 1200.00 86 129 1.100 10000.000 0.000 -1.505
139 417.00 1200.00 81 144 1.100 10000.000 0.000 -1.505
140 420.00 1200.00 77 169 1.100 10000.000 0.000 -1.505
141 423.00 1200.00 78 142 1.100 10000.000 0.000 -1.505
142 426.00 1200.00 76 168 1.100 10000.000 0.000 -1.505
143 429.00 1200.00 73 141 1.100 10000.000 0.000 -1.505
144 432.00 1200.00 75 144 1.100 10000.000 0.000 -1.505
