# BinNR microsec tot-time (s)  O-Beam AUX Ampl_1(V) f_1(Hz) phase_1(deg) Ampl_2(V) f_2(Hz) phase_2(deg) chi(pos)
0 0.00 1200.00 98 276 0.760 10000.000 0.000 0.580 15000.000 0.000 -1.176
1 3.00 1200.00 168 486 0.760 10000.000 0.000 0.580 15000.000 0.000 -1.176
2 6.00 1200.00 164 509 0.760 10000.000 0.000 0.580 15000.000 0.000 -1.176
3 9.00 1200.00 134 527 0.760 10000.000 0.000 0.580 15000.000 0.000 -1.176
4 12.00 1200.00 125 529 0.760 10000.000 0.000 0.580 15000.000 0.000 -1.176
5 15.00 1200.00 118 491 0.760 10000.000 0.000 0.580 15000.000 0.000 -1.176
6 18.00 1200.00 137 519 0.760 10000.000 0.000 0.580 15000.000 0.000 -1.176
7 21.00 1200.00 116 535 0.760 10000.000 0.000 0.580 15000.000 0.000 -1.176
8 24.00 1200.00 129 578 0.760 10000.000 0.000 0.580 15000.000 0.000 -1.176
9 27.00 1200.00 111 574 0.760 10000.000 0.000 0.580 15000.000 0.000 -1.176
10 30.00 1200.00 136 616 0.760 10000.000 0.000 0.580 15000.000 0.000 -1.176
11 33.00 1200.00 163 673 0.760 10000.000 0.000 0.580 15000.000 0.000 -1.176
12 36.00 1200.00 147 715 0.760 10000.000 0.000 0.580 15000.000 0.000 -1.176
13 39.00 1200.00 140 665 0.760 10000.000 0.000 0.580 15000.000 0.000 -1.176
14 42.00 1200.00 162 695 0.760 10000.000 0.000 0.580 15000.000 0.000 -1.176
15 45.00 1200.00 162 691 0.760 10000.000 0.000 0.580 15000.000 0.000 -1.176
16 48.00 1200.00 148 682 0.760 10000.000 0.000 0.580 15000.000 0.000 -1.176
17 51.00 1200.00 200 693 0.760 10000.000 0.000 0.580 15000.000 0.000 -1.176
18 54.00 1200.00 185 661 0.760 10000.000 0.000 0.580 15000.000 0.000 -1.176
19 57.00 1200.00 173 604 0.760 10000.000 0.000 0.580 15000.000 0.000 -1.176
20 60.00 1200.00 153 633 0.760 10000.000 0.000 0.580 15000.000 0.000 -1.176
21 63.00 1200.00 194 626 0.760 10000.000 0.000 0.580 15000.000 0.000 -1.176
22 66.00 1200.00 153 627 0.760 10000.000 0.000 0.580 15000.000 0.000 -1.176
23 69.00 1200.00 158 583 0.760 10000.000 0.000 0.580 15000.000 0.000 -1.176
24 72.00 1200.00 149 636 0.760 10000.000 0.000 0.580 15000.000 0.000 -1.176
25 75.00 1200.00 148 587 0.760 10000.000 0.000 0.580 15000.000 0.000 -1.176
26 78.00 1200.00 170 610 0.760 10000.000 0.000 0.580 15000.000 0.000 -1.176
27 81.00 1200.00 163 582 0.760 10000.000 0.000 0.580 15000.000 0.000 -1.176
28 84.00 1200.00 184 572 0.760 10000.000 0.000 0.580 15000.000 0.000 -1.176
29 87.00 1200.00 175 564 0.760 10000.000 0.000 0.580 15000.000 0.000 -1.176
30 90.00 1200.00 183 495 0.760 10000.000 0.000 0.580 15000.000 0.000 -1.176
31 93.00 1200.00 173 449 0.760 10000.000 0.000 0.580 15000.000 0.000 -1.176
32 96.00 1200.00 153 409 0.760 10000.000 0.000 0.580 15000.000 0.000 -1.176
33 99.00 1200.00 195 405 0.760 10000.000 0.000 0.580 15000.000 0.000 -1.176
34 102.00 1200.00 196 330 0.760 10000.000 0.000 0.580 15000.000 0.000 -1.176
35 105.00 1200.00 211 304 0.760 10000.000 0.000 0.580 15000.000 0.000 -1.176
36 108.00 1200.00 236 311 0.760 10000.000 0.000 0.580 15000.000 0.000 -1.176
37 111.00 1200.00 233 334 0.760 10000.000 0.000 0.580 15000.000 0.000 -1.176
38 114.00 1200.00 183 346 0.760 10000.000 0.000 0.580 15000.000 0.000 -1.176
39 117.00 1200.00 185 380 0.760 10000.000 0.000 0.580 15000.000 0.000 -1.176
40 120.00 1200.00 189 416 0.760 10000.000 0.000 0.580 15000.000 0.000 -1.176
41 123.00 1200.00 164 495 0.760 10000.000 0.000 0.580 15000.000 0.000 -1.176
42 126.00 1200.00 139 608 0.760 10000.000 0.000 0.580 15000.000 0.000 -1.176
43 129.00 1200.00 114 645 0.760 10000.000 0.000 0.580 15000.000 0.000 -1.176
44 132.00 1200.00 131 710 0.760 10000.000 0.000 0.580 15000.000 0.000 -1.176
45 135.00 1200.00 119 770 0.760 10000.000 0.000 0.580 15000.000 0.000 -1.176
46 138.00 1200.00 117 815 0.760 10000.000 0.000 0.580 15000.000 0.000 -1.176
47 141.00 1200.00 117 801 0.760 10000.000 0.000 0.580 15000.000 0.000 -1.176
48 144.00 1200.00 105 777 0.760 10000.000 0.000 0.580 15000.000 0.000 -1.176
49 147.00 1200.00 100 810 0.760 10000.000 0.000 0.580 15000.000 0.000 -1.176
50 150.00 1200.00 113 804 0.760 10000.000 0.000 0.580 15000.000 0.000 -1.176
51 153.00 1200.00 129 791 0.760 10000.000 0.000 0.580 15000.000 0.000 -1.176
52 156.00 1200.00 133 784 0.760 10000.000 0.000 0.580 15000.000 0.000 -1.176
53 159.00 1200.00 147 642 0.760 10000.000 0.000 0.580 15000.000 0.000 -1.176
54 162.00 1200.00 163 644 0.760 10000.000 0.000 0.580 15000.000 0.000 -1.176
55 165.00 1200.00 179 555 0.760 10000.000 0.000 0.580 15000.000 0.000 -1.176
56 168.00 1200.00 208 477 0.760 10000.000 0.000 0.580 15000.000 0.000 -1.176
57 171.00 1200.00 195 473 0.760 10000.000 0.000 0.580 15000.000 0.000 -1.176
58 174.00 1200.00 246 435 0.760 10000.000 0.000 0.580 15000.000 0.000 -1.176
59 177.00 1200.00 249 385 0.760 10000.000 0.000 0.580 15000.000 0.000 -1.176
60 180.00 1200.00 239 360 0.760 10000.000 0.000 0.580 15000.000 0.000 -1.176
61 183.00 1200.00 262 340 0.760 10000.000 0.000 0.580 15000.000 0.000 -1.176
62 186.00 1200.00 238 406 0.760 10000.000 0.000 0.580 15000.000 0.000 -1.176
63 189.00 1200.00 193 375 0.760 10000.000 0.000 0.580 15000.000 0.000 -1.176
64 192.00 1200.00 205 481 0.760 10000.000 0.000 0.580 15000.000 0.000 -1.176
65 195.00 1200.00 187 490 0.760 10000.000 0.000 0.580 15000.000 0.000 -1.176
66 198.00 1200.00 185 493 0.760 10000.000 0.000 0.580 15000.000 0.000 -1.176
67 201.00 1200.00 181 525 0.760 10000.000 0.000 0.580 15000.000 0.000 -1.176
68 204.00 1200.00 172 557 0.760 10000.000 0.000 0.580 15000.000 0.000 -1.176
69 207.00 1200.00 135 596 0.760 10000.000 0.000 0.580 15000.000 0.000 -1.176
70 210.00 1200.00 130 571 0.760 10000.000 0.000 0.580 15000.000 0.000 -1.176
71 213.00 1200.00 122 555 0.760 10000.000 0.000 0.580 15000.000 0.000 -1.176
72 216.00 1200.00 132 643 0.760 10000.000 0.000 0.580 15000.000 0.000 -1.176
73 219.00 1200.00 126 637 0.760 10000.000 0.000 0.580 15000.000 0.000 -1.176
74 222.00 1200.00 103 651 0.760 10000.000 0.000 0.580 15000.000 0.000 -1.176
75 225.00 1200.00 113 588 0.760 10000.000 0.000 0.580 15000.000 0.000 -1.176
76 228.00 1200.00 134 585 0.760 10000.000 0.000 0.580 15000.000 0.000 -1.176
77 231.00 1200.00 160 508 0.760 10000.000 0.000 0.580 15000.000 0.000 -1.176
78 234.00 1200.00 139 577 0.760 10000.000 0.000 0.580 15000.000 0.000 -1.176
79 237.00 1200.00 151 549 0.760 10000.000 0.000 0.580 15000.000 0.000 -1.176
80 240.00 1200.00 152 552 0.760 10000.000 0.000 0.580 15000.000 0.000 -1.176
81 243.00 1200.00 164 589 0.760 10000.000 0.000 0.580 15000.000 0.000 -1.176
82 246.00 1200.00 177 567 0.760 10000.000 0.000 0.580 15000.000 0.000 -1.176
83 249.00 1200.00 184 614 0.760 10000.000 0.000 0.580 15000.000 0.000 -1.176
84 252.00 1200.00 190 575 0.760 10000.000 0.000 0.580 15000.000 0.000 -1.176
85 255.00 1200.00 172 631 0.760 10000.000 0.000 0.580 15000.000 0.000 -1.176
86 258.00 1200.00 164 666 0.760 10000.000 0.000 0.580 15000.000 0.000 -1.176
87 261.00 1200.00 166 669 0.760 10000.000 0.000 0.580 15000.000 0.000 -1.176
88 264.00 1200.00 166 705 0.760 10000.000 0.000 0.580 15000.000 0.000 -1.176
89 267.00 1200.00 159 744 0.760 10000.000 0.000 0.580 15000.000 0.000 -1.176
90 270.00 1200.00 159 776 0.760 10000.000 0.000 0.580 15000.000 0.000 -1.176
91 273.00 1200.00 183 717 0.760 10000.000 0.000 0.580 15000.000 0.000 -1.176
92 276.00 1200.00 144 713 0.760 10000.000 0.000 0.580 15000.000 0.000 -1.176
93 279.00 1200.00 175 648 0.760 10000.000 0.000 0.580 15000.000 0.000 -1.176
94 282.00 1200.00 179 582 0.760 10000.000 0.000 0.580 15000.000 0.000 -1.176
95 285.00 1200.00 132 543 0.760 10000.000 0.000 0.580 15000.000 0.000 -1.176
96 288.00 1200.00 159 516 0.760 10000.000 0.000 0.580 15000.000 0.000 -1.176
97 291.00 1200.00 175 435 0.760 10000.000 0.000 0.580 15000.000 0.000 -1.176
98 294.00 1200.00 163 415 0.760 10000.000 0.000 0.580 15000.000 0.000 -1.176
99 297.00 1200.00 173 368 0.760 10000.000 0.000 0.580 15000.000 0.000 -1.176
100 300.00 1200.00 177 331 0.760 10000.000 0.000 0.580 15000.000 0.000 -1.176
101 303.00 1200.00 172 283 0.760 10000.000 0.000 0.580 15000.000 0.000 -1.176
102 306.00 1200.00 176 286 0.760 10000.000 0.000 0.580 15000.000 0.000 -1.176
103 309.00 1200.00 191 324 0.760 10000.000 0.000 0.580 15000.000 0.000 -1.176
104 312.00 1200.00 221 363 0.760 10000.000 0.000 0.580 15000.000 0.000 -1.176
105 315.00 1200.00 196 369 0.760 10000.000 0.000 0.580 15000.000 0.000 -1.176
106 318.00 1200.00 192 401 0.760 10000.000 0.000 0.580 15000.000 0.000 -1.176
107 321.00 1200.00 182 501 0.760 10000.000 0.000 0.580 15000.000 0.000 -1.176
108 324.00 1200.00 192 549 0.760 10000.000 0.000 0.580 15000.000 0.000 -1.176
109 327.00 1200.00 172 601 0.760 10000.000 0.000 0.580 15000.000 0.000 -1.176
110 330.00 1200.00 173 694 0.760 10000.000 0.000 0.580 15000.000 0.000 -1.176
111 333.00 1200.00 195 725 0.760 10000.000 0.000 0.580 15000.000 0.000 -1.176
112 336.00 1200.00 177 799 0.760 10000.000 0.000 0.580 15000.000 0.000 -1.176
113 339.00 1200.00 168 754 0.760 10000.000 0.000 0.580 15000.000 0.000 -1.176
114 342.00 1200.00 164 820 0.760 10000.000 0.000 0.580 15000.000 0.000 -1.176
115 345.00 1200.00 188 818 0.760 10000.000 0.000 0.580 15000.000 0.000 -1.176
116 348.00 1200.00 182 826 0.760 10000.000 0.000 0.580 15000.000 0.000 -1.176
117 351.00 1200.00 154 749 0.760 10000.000 0.000 0.580 15000.000 0.000 -1.176
118 354.00 1200.00 172 784 0.760 10000.000 0.000 0.580 15000.000 0.000 -1.176
119 357.00 1200.00 145 711 0.760 10000.000 0.000 0.580 15000.000 0.000 -1.176
120 360.00 1200.00 143 642 0.760 10000.000 0.000 0.580 15000.000 0.000 -1.176
121 363.00 1200.00 166 611 0.760 10000.000 0.000 0.580 15000.000 0.000 -1.176
122 366.00 1200.00 138 545 0.760 10000.000 0.000 0.580 15000.000 0.000 -1.176
123 369.00 1200.00 121 502 0.760 10000.000 0.000 0.580 15000.000 0.000 -1.176
124 372.00 1200.00 112 431 0.760 10000.000 0.000 0.580 15000.000 0.000 -1.176
125 375.00 1200.00 125 410 0.760 10000.000 0.000 0.580 15000.000 0.000 -1.176
126 378.00 1200.00 117 377 0.760 10000.000 0.000 0.580 15000.000 0.000 -1.176
127 381.00 1200.00 109 333 0.760 10000.000 0.000 0.580 15000.000 0.000 -1.176
128 384.00 1200.00 128 364 0.760 10000.000 0.000 0.580 15000.000 0.000 -1.176
129 387.00 1200.00 117 399 0.760 10000.000 0.000 0.580 15000.000 0.000 -1.176
130 390.00 1200.00 135 413 0.760 10000.000 0.000 0.580 15000.000 0.000 -1.176
131 393.00 1200.00 154 454 0.760 10000.000 0.000 0.580 15000.000 0.000 -1.176
132 396.00 1200.00 174 451 0.760 10000.000 0.000 0.580 15000.000 0.000 -1.176
133 399.00 1200.00 169 491 0.760 10000.000 0.000 0.580 15000.000 0.000 -1.176
134 402.00 1200.00 206 545 0.760 10000.000 0.000 0.580 15000.000 0.000 -1.176
135 405.00 1200.00 213 594 0.760 10000.000 0.000 0.580 15000.000 0.000 -1.176
136 408.00 1200.00 243 636 0.760 10000.000 0.000 0.580 15000.000 0.000 -1.176
137 411.00 1200.00 227 607 0.760 10000.000 0.000 0.580 15000.000 0.000 -1.176
138 414.00 1200.00 251 586 0.760 10000.000 0.000 0.580 15000.000 0.000 -1.176
139 417.00 1200.00 215 595 0.760 10000.000 0.000 0.580 15000.000 0.000 -1.176
140 420.00 1200.00 231 642 0.760 10000.000 0.000 0.580 15000.000 0.000 -1.176
141 423.00 1200.00 230 652 0.760 10000.000 0.000 0.580 15000.000 0.000 -1.176
142 426.00 1200.00 220 601 0.760 10000.000 0.000 0.580 15000.000 0.000 -1.176
143 429.00 1200.00 180 568 0.760 10000.000 0.000 0.580 15000.000 0.000 -1.176
144 432.00 1200.00 205 595 0.760 10000.000 0.000 0.580 15000.000 0.000 -1.176
