# BinNR microsec tot-time (s)  O-Beam AUX Ampl_1(V) f_1(Hz) phase_1(deg) Ampl_2(V) f_2(Hz) phase_2(deg) chi(pos)
0 0.00 1200.01 165 490 0.760 10000.000 0.000 0.580 15000.000 0.000 -0.681
1 3.00 1200.01 349 1028 0.760 10000.000 0.000 0.580 15000.000 0.000 -0.681
2 6.00 1200.01 360 980 0.760 10000.000 0.000 0.580 15000.000 0.000 -0.681
3 9.00 1200.01 339 1023 0.760 10000.000 0.000 0.580 15000.000 0.000 -0.681
4 12.00 1200.01 370 999 0.760 10000.000 0.000 0.580 15000.000 0.000 -0.681
5 15.00 1200.01 314 1030 0.760 10000.000 0.000 0.580 15000.000 0.000 -0.681
6 18.00 1200.01 327 995 0.760 10000.000 0.000 0.580 15000.000 0.000 -0.681
7 21.00 1200.01 329 958 0.760 10000.000 0.000 0.580 15000.000 0.000 -0.681
8 24.00 1200.01 281 1062 0.760 10000.000 0.000 0.580 15000.000 0.000 -0.681
9 27.00 1200.01 308 937 0.760 10000.000 0.000 0.580 15000.000 0.000 -0.681
10 30.00 1200.01 329 996 0.760 10000.000 0.000 0.580 15000.000 0.000 -0.681
11 33.00 1200.01 334 934 0.760 10000.000 0.000 0.580 15000.000 0.000 -0.681
12 36.00 1200.01 332 990 0.760 10000.000 0.000 0.580 15000.000 0.000 -0.681
13 39.00 1200.01 357 1013 0.760 10000.000 0.000 0.580 15000.000 0.000 -0.681
14 42.00 1200.01 341 934 0.760 10000.000 0.000 0.580 15000.000 0.000 -0.681
15 45.00 1200.01 343 982 0.760 10000.000 0.000 0.580 15000.000 0.000 -0.681
16 48.00 1200.01 385 927 0.760 10000.000 0.000 0.580 15000.000 0.000 -0.681
17 51.00 1200.01 321 989 0.760 10000.000 0.000 0.580 15000.000 0.000 -0.681
18 54.00 1200.01 375 994 0.760 10000.000 0.000 0.580 15000.000 0.000 -0.681
19 57.00 1200.01 346 924 0.760 10000.000 0.000 0.580 15000.000 0.000 -0.681
20 60.00 1200.01 334 995 0.760 10000.000 0.000 0.580 15000.000 0.000 -0.681
21 63.00 1200.01 303 1003 0.760 10000.000 0.000 0.580 15000.000 0.000 -0.681
22 66.00 1200.01 360 934 0.760 10000.000 0.000 0.580 15000.000 0.000 -0.681
23 69.00 1200.01 331 1006 0.760 10000.000 0.000 0.580 15000.000 0.000 -0.681
24 72.00 1200.01 371 943 0.760 10000.000 0.000 0.580 15000.000 0.000 -0.681
25 75.00 1200.01 337 952 0.760 10000.000 0.000 0.580 15000.000 0.000 -0.681
26 78.00 1200.01 361 997 0.760 10000.000 0.000 0.580 15000.000 0.000 -0.681
27 81.00 1200.01 331 1000 0.760 10000.000 0.000 0.580 15000.000 0.000 -0.681
28 84.00 1200.01 322 1031 0.760 10000.000 0.000 0.580 15000.000 0.000 -0.681
29 87.00 1200.01 345 950 0.760 10000.000 0.000 0.580 15000.000 0.000 -0.681
30 90.00 1200.01 350 954 0.760 10000.000 0.000 0.580 15000.000 0.000 -0.681
31 93.00 1200.01 353 971 0.760 10000.000 0.000 0.580 15000.000 0.000 -0.681
32 96.00 1200.01 358 985 0.760 10000.000 0.000 0.580 15000.000 0.000 -0.681
33 99.00 1200.01 346 974 0.760 10000.000 0.000 0.580 15000.000 0.000 -0.681
34 102.00 1200.01 304 934 0.760 10000.000 0.000 0.580 15000.000 0.000 -0.681
35 105.00 1200.01 355 953 0.760 10000.000 0.000 0.580 15000.000 0.000 -0.681
36 108.00 1200.01 336 974 0.760 10000.000 0.000 0.580 15000.000 0.000 -0.681
37 111.00 1200.01 337 924 0.760 10000.000 0.000 0.580 15000.000 0.000 -0.681
38 114.00 1200.01 366 955 0.760 10000.000 0.000 0.580 15000.000 0.000 -0.681
39 117.00 1200.01 341 947 0.760 10000.000 0.000 0.580 15000.000 0.000 -0.681
40 120.00 1200.01 358 993 0.760 10000.000 0.000 0.580 15000.000 0.000 -0.681
41 123.00 1200.01 339 1039 0.760 10000.000 0.000 0.580 15000.000 0.000 -0.681
42 126.00 1200.01 356 966 0.760 10000.000 0.000 0.580 15000.000 0.000 -0.681
43 129.00 1200.01 336 974 0.760 10000.000 0.000 0.580 15000.000 0.000 -0.681
44 132.00 1200.01 306 951 0.760 10000.000 0.000 0.580 15000.000 0.000 -0.681
45 135.00 1200.01 318 894 0.760 10000.000 0.000 0.580 15000.000 0.000 -0.681
46 138.00 1200.01 279 938 0.760 10000.000 0.000 0.580 15000.000 0.000 -0.681
47 141.00 1200.01 314 937 0.760 10000.000 0.000 0.580 15000.000 0.000 -0.681
48 144.00 1200.01 292 872 0.760 10000.000 0.000 0.580 15000.000 0.000 -0.681
49 147.00 1200.01 303 815 0.760 10000.000 0.000 0.580 15000.000 0.000 -0.681
50 150.00 1200.01 307 917 0.760 10000.000 0.000 0.580 15000.000 0.000 -0.681
51 153.00 1200.01 330 881 0.760 10000.000 0.000 0.580 15000.000 0.000 -0.681
52 156.00 1200.01 329 906 0.760 10000.000 0.000 0.580 15000.000 0.000 -0.681
53 159.00 1200.01 321 962 0.760 10000.000 0.000 0.580 15000.000 0.000 -0.681
54 162.00 1200.01 338 994 0.760 10000.000 0.000 0.580 15000.000 0.000 -0.681
55 165.00 1200.01 337 1013 0.760 10000.000 0.000 0.580 15000.000 0.000 -0.681
56 168.00 1200.01 320 1035 0.760 10000.000 0.000 0.580 15000.000 0.000 -0.681
57 171.00 1200.01 309 999 0.760 10000.000 0.000 0.580 15000.000 0.000 -0.681
58 174.00 1200.01 327 922 0.760 10000.000 0.000 0.580 15000.000 0.000 -0.681
59 177.00 1200.01 303 968 0.760 10000.000 0.000 0.580 15000.000 0.000 -0.681
60 180.00 1200.01 365 944 0.760 10000.000 0.000 0.580 15000.000 0.000 -0.681
61 183.00 1200.01 338 912 0.760 10000.000 0.000 0.580 15000.000 0.000 -0.681
62 186.00 1200.01 321 957 0.760 10000.000 0.000 0.580 15000.000 0.000 -0.681
63 189.00 1200.01 330 994 0.760 10000.000 0.000 0.580 15000.000 0.000 -0.681
64 192.00 1200.01 349 939 0.760 10000.000 0.000 0.580 15000.000 0.000 -0.681
65 195.00 1200.01 365 962 0.760 10000.000 0.000 0.580 15000.000 0.000 -0.681
66 198.00 1200.01 332 968 0.760 10000.000 0.000 0.580 15000.000 0.000 -0.681
67 201.00 1200.01 320 999 0.760 10000.000 0.000 0.580 15000.000 0.000 -0.681
68 204.00 1200.01 338 1003 0.760 10000.000 0.000 0.580 15000.000 0.000 -0.681
69 207.00 1200.01 322 1010 0.760 10000.000 0.000 0.580 15000.000 0.000 -0.681
70 210.00 1200.01 347 974 0.760 10000.000 0.000 0.580 15000.000 0.000 -0.681
71 213.00 1200.01 336 901 0.760 10000.000 0.000 0.580 15000.000 0.000 -0.681
72 216.00 1200.01 319 1009 0.760 10000.000 0.000 0.580 15000.000 0.000 -0.681
73 219.00 1200.01 303 964 0.760 10000.000 0.000 0.580 15000.000 0.000 -0.681
74 222.00 1200.01 293 1022 0.760 10000.000 0.000 0.580 15000.000 0.000 -0.681
75 225.00 1200.01 305 1051 0.760 10000.000 0.000 0.580 15000.000 0.000 -0.681
76 228.00 1200.01 350 970 0.760 10000.000 0.000 0.580 15000.000 0.000 -0.681
77 231.00 1200.01 303 1006 0.760 10000.000 0.000 0.580 15000.000 0.000 -0.681
78 234.00 1200.01 352 1004 0.760 10000.000 0.000 0.580 15000.000 0.000 -0.681
79 237.00 1200.01 319 993 0.760 10000.000 0.000 0.580 15000.000 0.000 -0.681
80 240.00 1200.01 331 1037 0.760 10000.000 0.000 0.580 15000.000 0.000 -0.681
81 243.00 1200.01 305 944 0.760 10000.000 0.000 0.580 15000.000 0.000 -0.681
82 246.00 1200.01 304 1040 0.760 10000.000 0.000 0.580 15000.000 0.000 -0.681
83 249.00 1200.01 350 996 0.760 10000.000 0.000 0.580 15000.000 0.000 -0.681
84 252.00 1200.01 362 974 0.760 10000.000 0.000 0.580 15000.000 0.000 -0.681
85 255.00 1200.01 357 943 0.760 10000.000 0.000 0.580 15000.000 0.000 -0.681
86 258.00 1200.01 362 961 0.760 10000.000 0.000 0.580 15000.000 0.000 -0.681
87 261.00 1200.01 348 956 0.760 10000.000 0.000 0.580 15000.000 0.000 -0.681
88 264.00 1200.01 324 1014 0.760 10000.000 0.000 0.580 15000.000 0.000 -0.681
89 267.00 1200.01 333 898 0.760 10000.000 0.000 0.580 15000.000 0.000 -0.681
90 270.00 1200.01 356 975 0.760 10000.000 0.000 0.580 15000.000 0.000 -0.681
91 273.00 1200.01 342 974 0.760 10000.000 0.000 0.580 15000.000 0.000 -0.681
92 276.00 1200.01 328 968 0.760 10000.000 0.000 0.580 15000.000 0.000 -0.681
93 279.00 1200.01 342 956 0.760 10000.000 0.000 0.580 15000.000 0.000 -0.681
94 282.00 1200.01 354 1039 0.760 10000.000 0.000 0.580 15000.000 0.000 -0.681
95 285.00 1200.01 341 952 0.760 10000.000 0.000 0.580 15000.000 0.000 -0.681
96 288.00 1200.01 316 989 0.760 10000.000 0.000 0.580 15000.000 0.000 -0.681
97 291.00 1200.01 335 972 0.760 10000.000 0.000 0.580 15000.000 0.000 -0.681
98 294.00 1200.01 343 955 0.760 10000.000 0.000 0.580 15000.000 0.000 -0.681
99 297.00 1200.01 332 970 0.760 10000.000 0.000 0.580 15000.000 0.000 -0.681
100 300.00 1200.01 310 981 0.760 10000.000 0.000 0.580 15000.000 0.000 -0.681
101 303.00 1200.01 332 894 0.760 10000.000 0.000 0.580 15000.000 0.000 -0.681
102 306.00 1200.01 337 909 0.760 10000.000 0.000 0.580 15000.000 0.000 -0.681
103 309.00 1200.01 324 918 0.760 10000.000 0.000 0.580 15000.000 0.000 -0.681
104 312.00 1200.01 349 1005 0.760 10000.000 0.000 0.580 15000.000 0.000 -0.681
105 315.00 1200.01 335 927 0.760 10000.000 0.000 0.580 15000.000 0.000 -0.681
106 318.00 1200.01 339 1023 0.760 10000.000 0.000 0.580 15000.000 0.000 -0.681
107 321.00 1200.01 330 991 0.760 10000.000 0.000 0.580 15000.000 0.000 -0.681
108 324.00 1200.01 364 986 0.760 10000.000 0.000 0.580 15000.000 0.000 -0.681
109 327.00 1200.01 311 927 0.760 10000.000 0.000 0.580 15000.000 0.000 -0.681
110 330.00 1200.01 335 1052 0.760 10000.000 0.000 0.580 15000.000 0.000 -0.681
111 333.00 1200.01 347 938 0.760 10000.000 0.000 0.580 15000.000 0.000 -0.681
112 336.00 1200.01 349 888 0.760 10000.000 0.000 0.580 15000.000 0.000 -0.681
113 339.00 1200.01 333 913 0.760 10000.000 0.000 0.580 15000.000 0.000 -0.681
114 342.00 1200.01 352 947 0.760 10000.000 0.000 0.580 15000.000 0.000 -0.681
115 345.00 1200.01 325 911 0.760 10000.000 0.000 0.580 15000.000 0.000 -0.681
116 348.00 1200.01 355 884 0.760 10000.000 0.000 0.580 15000.000 0.000 -0.681
117 351.00 1200.01 338 909 0.760 10000.000 0.000 0.580 15000.000 0.000 -0.681
118 354.00 1200.01 339 940 0.760 10000.000 0.000 0.580 15000.000 0.000 -0.681
119 357.00 1200.01 312 950 0.760 10000.000 0.000 0.580 15000.000 0.000 -0.681
120 360.00 1200.01 345 986 0.760 10000.000 0.000 0.580 15000.000 0.000 -0.681
121 363.00 1200.01 335 937 0.760 10000.000 0.000 0.580 15000.000 0.000 -0.681
122 366.00 1200.01 308 955 0.760 10000.000 0.000 0.580 15000.000 0.000 -0.681
123 369.00 1200.01 310 960 0.760 10000.000 0.000 0.580 15000.000 0.000 -0.681
124 372.00 1200.01 329 957 0.760 10000.000 0.000 0.580 15000.000 0.000 -0.681
125 375.00 1200.01 314 967 0.760 10000.000 0.000 0.580 15000.000 0.000 -0.681
126 378.00 1200.01 278 1009 0.760 10000.000 0.000 0.580 15000.000 0.000 -0.681
127 381.00 1200.01 301 952 0.760 10000.000 0.000 0.580 15000.000 0.000 -0.681
128 384.00 1200.01 322 962 0.760 10000.000 0.000 0.580 15000.000 0.000 -0.681
129 387.00 1200.01 318 956 0.760 10000.000 0.000 0.580 15000.000 0.000 -0.681
130 390.00 1200.01 342 972 0.760 10000.000 0.000 0.580 15000.000 0.000 -0.681
131 393.00 1200.01 312 965 0.760 10000.000 0.000 0.580 15000.000 0.000 -0.681
132 396.00 1200.01 344 949 0.760 10000.000 0.000 0.580 15000.000 0.000 -0.681
133 399.00 1200.01 338 968 0.760 10000.000 0.000 0.580 15000.000 0.000 -0.681
134 402.00 1200.01 342 1004 0.760 10000.000 0.000 0.580 15000.000 0.000 -0.681
135 405.00 1200.01 327 955 0.760 10000.000 0.000 0.580 15000.000 0.000 -0.681
136 408.00 1200.01 353 935 0.760 10000.000 0.000 0.580 15000.000 0.000 -0.681
137 411.00 1200.01 359 973 0.760 10000.000 0.000 0.580 15000.000 0.000 -0.681
138 414.00 1200.01 317 996 0.760 10000.000 0.000 0.580 15000.000 0.000 -0.681
139 417.00 1200.01 318 956 0.760 10000.000 0.000 0.580 15000.000 0.000 -0.681
140 420.00 1200.01 332 1051 0.760 10000.000 0.000 0.580 15000.000 0.000 -0.681
141 423.00 1200.01 326 1020 0.760 10000.000 0.000 0.580 15000.000 0.000 -0.681
142 426.00 1200.01 327 1027 0.760 10000.000 0.000 0.580 15000.000 0.000 -0.681
143 429.00 1200.01 313 1053 0.760 10000.000 0.000 0.580 15000.000 0.000 -0.681
144 432.00 1200.01 340 1016 0.760 10000.000 0.000 0.580 15000.000 0.000 -0.681
