# BinNR microsec tot-time (s)  O-Beam AUX Ampl_1(V) f_1(Hz) phase_1(deg) Ampl_2(V) f_2(Hz) phase_2(deg) chi(pos)
0 0.00 1200.00 57 174 0.760 10000.000 0.000 0.580 15000.000 0.000 -1.340
1 3.00 1200.00 100 291 0.760 10000.000 0.000 0.580 15000.000 0.000 -1.340
2 6.00 1200.00 115 309 0.760 10000.000 0.000 0.580 15000.000 0.000 -1.340
3 9.00 1200.00 85 303 0.760 10000.000 0.000 0.580 15000.000 0.000 -1.340
4 12.00 1200.00 83 292 0.760 10000.000 0.000 0.580 15000.000 0.000 -1.340
5 15.00 1200.00 78 284 0.760 10000.000 0.000 0.580 15000.000 0.000 -1.340
6 18.00 1200.00 77 278 0.760 10000.000 0.000 0.580 15000.000 0.000 -1.340
7 21.00 1200.00 67 326 0.760 10000.000 0.000 0.580 15000.000 0.000 -1.340
8 24.00 1200.00 88 350 0.760 10000.000 0.000 0.580 15000.000 0.000 -1.340
9 27.00 1200.00 65 353 0.760 10000.000 0.000 0.580 15000.000 0.000 -1.340
10 30.00 1200.00 68 400 0.760 10000.000 0.000 0.580 15000.000 0.000 -1.340
11 33.00 1200.00 86 407 0.760 10000.000 0.000 0.580 15000.000 0.000 -1.340
12 36.00 1200.00 114 440 0.760 10000.000 0.000 0.580 15000.000 0.000 -1.340
13 39.00 1200.00 90 468 0.760 10000.000 0.000 0.580 15000.000 0.000 -1.340
14 42.00 1200.00 99 491 0.760 10000.000 0.000 0.580 15000.000 0.000 -1.340
15 45.00 1200.00 123 439 0.760 10000.000 0.000 0.580 15000.000 0.000 -1.340
16 48.00 1200.00 118 457 0.760 10000.000 0.000 0.580 15000.000 0.000 -1.340
17 51.00 1200.00 105 412 0.760 10000.000 0.000 0.580 15000.000 0.000 -1.340
18 54.00 1200.00 106 477 0.760 10000.000 0.000 0.580 15000.000 0.000 -1.340
19 57.00 1200.00 116 426 0.760 10000.000 0.000 0.580 15000.000 0.000 -1.340
20 60.00 1200.00 128 423 0.760 10000.000 0.000 0.580 15000.000 0.000 -1.340
21 63.00 1200.00 129 393 0.760 10000.000 0.000 0.580 15000.000 0.000 -1.340
22 66.00 1200.00 107 353 0.760 10000.000 0.000 0.580 15000.000 0.000 -1.340
23 69.00 1200.00 104 378 0.760 10000.000 0.000 0.580 15000.000 0.000 -1.340
24 72.00 1200.00 109 418 0.760 10000.000 0.000 0.580 15000.000 0.000 -1.340
25 75.00 1200.00 100 359 0.760 10000.000 0.000 0.580 15000.000 0.000 -1.340
26 78.00 1200.00 117 361 0.760 10000.000 0.000 0.580 15000.000 0.000 -1.340
27 81.00 1200.00 124 367 0.760 10000.000 0.000 0.580 15000.000 0.000 -1.340
28 84.00 1200.00 106 344 0.760 10000.000 0.000 0.580 15000.000 0.000 -1.340
29 87.00 1200.00 104 321 0.760 10000.000 0.000 0.580 15000.000 0.000 -1.340
30 90.00 1200.00 135 300 0.760 10000.000 0.000 0.580 15000.000 0.000 -1.340
31 93.00 1200.00 119 264 0.760 10000.000 0.000 0.580 15000.000 0.000 -1.340
32 96.00 1200.00 142 216 0.760 10000.000 0.000 0.580 15000.000 0.000 -1.340
33 99.00 1200.00 134 187 0.760 10000.000 0.000 0.580 15000.000 0.000 -1.340
34 102.00 1200.00 149 163 0.760 10000.000 0.000 0.580 15000.000 0.000 -1.340
35 105.00 1200.00 147 156 0.760 10000.000 0.000 0.580 15000.000 0.000 -1.340
36 108.00 1200.00 134 168 0.760 10000.000 0.000 0.580 15000.000 0.000 -1.340
37 111.00 1200.00 124 181 0.760 10000.000 0.000 0.580 15000.000 0.000 -1.340
38 114.00 1200.00 105 186 0.760 10000.000 0.000 0.580 15000.000 0.000 -1.340
39 117.00 1200.00 117 203 0.760 10000.000 0.000 0.580 15000.000 0.000 -1.340
40 120.00 1200.00 102 256 0.760 10000.000 0.000 0.580 15000.000 0.000 -1.340
41 123.00 1200.00 93 323 0.760 10000.000 0.000 0.580 15000.000 0.000 -1.340
42 126.00 1200.00 94 367 0.760 10000.000 0.000 0.580 15000.000 0.000 -1.340
43 129.00 1200.00 93 385 0.760 10000.000 0.000 0.580 15000.000 0.000 -1.340
44 132.00 1200.00 79 479 0.760 10000.000 0.000 0.580 15000.000 0.000 -1.340
45 135.00 1200.00 78 532 0.760 10000.000 0.000 0.580 15000.000 0.000 -1.340
46 138.00 1200.00 78 607 0.760 10000.000 0.000 0.580 15000.000 0.000 -1.340
47 141.00 1200.00 83 648 0.760 10000.000 0.000 0.580 15000.000 0.000 -1.340
48 144.00 1200.00 79 655 0.760 10000.000 0.000 0.580 15000.000 0.000 -1.340
49 147.00 1200.00 81 609 0.760 10000.000 0.000 0.580 15000.000 0.000 -1.340
50 150.00 1200.00 87 628 0.760 10000.000 0.000 0.580 15000.000 0.000 -1.340
51 153.00 1200.00 89 582 0.760 10000.000 0.000 0.580 15000.000 0.000 -1.340
52 156.00 1200.00 99 529 0.760 10000.000 0.000 0.580 15000.000 0.000 -1.340
53 159.00 1200.00 109 416 0.760 10000.000 0.000 0.580 15000.000 0.000 -1.340
54 162.00 1200.00 114 393 0.760 10000.000 0.000 0.580 15000.000 0.000 -1.340
55 165.00 1200.00 127 368 0.760 10000.000 0.000 0.580 15000.000 0.000 -1.340
56 168.00 1200.00 132 287 0.760 10000.000 0.000 0.580 15000.000 0.000 -1.340
57 171.00 1200.00 134 260 0.760 10000.000 0.000 0.580 15000.000 0.000 -1.340
58 174.00 1200.00 166 209 0.760 10000.000 0.000 0.580 15000.000 0.000 -1.340
59 177.00 1200.00 168 196 0.760 10000.000 0.000 0.580 15000.000 0.000 -1.340
60 180.00 1200.00 196 189 0.760 10000.000 0.000 0.580 15000.000 0.000 -1.340
61 183.00 1200.00 163 202 0.760 10000.000 0.000 0.580 15000.000 0.000 -1.340
62 186.00 1200.00 164 219 0.760 10000.000 0.000 0.580 15000.000 0.000 -1.340
63 189.00 1200.00 138 210 0.760 10000.000 0.000 0.580 15000.000 0.000 -1.340
64 192.00 1200.00 177 247 0.760 10000.000 0.000 0.580 15000.000 0.000 -1.340
65 195.00 1200.00 134 254 0.760 10000.000 0.000 0.580 15000.000 0.000 -1.340
66 198.00 1200.00 133 275 0.760 10000.000 0.000 0.580 15000.000 0.000 -1.340
67 201.00 1200.00 123 296 0.760 10000.000 0.000 0.580 15000.000 0.000 -1.340
68 204.00 1200.00 100 336 0.760 10000.000 0.000 0.580 15000.000 0.000 -1.340
69 207.00 1200.00 89 332 0.760 10000.000 0.000 0.580 15000.000 0.000 -1.340
70 210.00 1200.00 91 388 0.760 10000.000 0.000 0.580 15000.000 0.000 -1.340
71 213.00 1200.00 71 367 0.760 10000.000 0.000 0.580 15000.000 0.000 -1.340
72 216.00 1200.00 96 408 0.760 10000.000 0.000 0.580 15000.000 0.000 -1.340
73 219.00 1200.00 93 414 0.760 10000.000 0.000 0.580 15000.000 0.000 -1.340
74 222.00 1200.00 97 435 0.760 10000.000 0.000 0.580 15000.000 0.000 -1.340
75 225.00 1200.00 98 386 0.760 10000.000 0.000 0.580 15000.000 0.000 -1.340
76 228.00 1200.00 83 393 0.760 10000.000 0.000 0.580 15000.000 0.000 -1.340
77 231.00 1200.00 108 333 0.760 10000.000 0.000 0.580 15000.000 0.000 -1.340
78 234.00 1200.00 90 311 0.760 10000.000 0.000 0.580 15000.000 0.000 -1.340
79 237.00 1200.00 95 364 0.760 10000.000 0.000 0.580 15000.000 0.000 -1.340
80 240.00 1200.00 113 334 0.760 10000.000 0.000 0.580 15000.000 0.000 -1.340
81 243.00 1200.00 127 317 0.760 10000.000 0.000 0.580 15000.000 0.000 -1.340
82 246.00 1200.00 112 331 0.760 10000.000 0.000 0.580 15000.000 0.000 -1.340
83 249.00 1200.00 121 372 0.760 10000.000 0.000 0.580 15000.000 0.000 -1.340
84 252.00 1200.00 121 402 0.760 10000.000 0.000 0.580 15000.000 0.000 -1.340
85 255.00 1200.00 123 412 0.760 10000.000 0.000 0.580 15000.000 0.000 -1.340
86 258.00 1200.00 106 450 0.760 10000.000 0.000 0.580 15000.000 0.000 -1.340
87 261.00 1200.00 108 489 0.760 10000.000 0.000 0.580 15000.000 0.000 -1.340
88 264.00 1200.00 118 489 0.760 10000.000 0.000 0.580 15000.000 0.000 -1.340
89 267.00 1200.00 97 471 0.760 10000.000 0.000 0.580 15000.000 0.000 -1.340
90 270.00 1200.00 109 448 0.760 10000.000 0.000 0.580 15000.000 0.000 -1.340
91 273.00 1200.00 88 493 0.760 10000.000 0.000 0.580 15000.000 0.000 -1.340
92 276.00 1200.00 102 497 0.760 10000.000 0.000 0.580 15000.000 0.000 -1.340
93 279.00 1200.00 101 473 0.760 10000.000 0.000 0.580 15000.000 0.000 -1.340
94 282.00 1200.00 115 369 0.760 10000.000 0.000 0.580 15000.000 0.000 -1.340
95 285.00 1200.00 79 334 0.760 10000.000 0.000 0.580 15000.000 0.000 -1.340
96 288.00 1200.00 97 305 0.760 10000.000 0.000 0.580 15000.000 0.000 -1.340
97 291.00 1200.00 97 253 0.760 10000.000 0.000 0.580 15000.000 0.000 -1.340
98 294.00 1200.00 116 216 0.760 10000.000 0.000 0.580 15000.000 0.000 -1.340
99 297.00 1200.00 109 193 0.760 10000.000 0.000 0.580 15000.000 0.000 -1.340
100 300.00 1200.00 129 171 0.760 10000.000 0.000 0.580 15000.000 0.000 -1.340
101 303.00 1200.00 115 161 0.760 10000.000 0.000 0.580 15000.000 0.000 -1.340
102 306.00 1200.00 112 149 0.760 10000.000 0.000 0.580 15000.000 0.000 -1.340
103 309.00 1200.00 122 151 0.760 10000.000 0.000 0.580 15000.000 0.000 -1.340
104 312.00 1200.00 125 178 0.760 10000.000 0.000 0.580 15000.000 0.000 -1.340
105 315.00 1200.00 121 207 0.760 10000.000 0.000 0.580 15000.000 0.000 -1.340
106 318.00 1200.00 138 218 0.760 10000.000 0.000 0.580 15000.000 0.000 -1.340
107 321.00 1200.00 104 267 0.760 10000.000 0.000 0.580 15000.000 0.000 -1.340
108 324.00 1200.00 122 303 0.760 10000.000 0.000 0.580 15000.000 0.000 -1.340
109 327.00 1200.00 127 402 0.760 10000.000 0.000 0.580 15000.000 0.000 -1.340
110 330.00 1200.00 119 529 0.760 10000.000 0.000 0.580 15000.000 0.000 -1.340
111 333.00 1200.00 116 496 0.760 10000.000 0.000 0.580 15000.000 0.000 -1.340
112 336.00 1200.00 106 571 0.760 10000.000 0.000 0.580 15000.000 0.000 -1.340
113 339.00 1200.00 101 613 0.760 10000.000 0.000 0.580 15000.000 0.000 -1.340
114 342.00 1200.00 125 613 0.760 10000.000 0.000 0.580 15000.000 0.000 -1.340
115 345.00 1200.00 112 649 0.760 10000.000 0.000 0.580 15000.000 0.000 -1.340
116 348.00 1200.00 104 611 0.760 10000.000 0.000 0.580 15000.000 0.000 -1.340
117 351.00 1200.00 103 594 0.760 10000.000 0.000 0.580 15000.000 0.000 -1.340
118 354.00 1200.00 102 627 0.760 10000.000 0.000 0.580 15000.000 0.000 -1.340
119 357.00 1200.00 97 487 0.760 10000.000 0.000 0.580 15000.000 0.000 -1.340
120 360.00 1200.00 106 466 0.760 10000.000 0.000 0.580 15000.000 0.000 -1.340
121 363.00 1200.00 88 357 0.760 10000.000 0.000 0.580 15000.000 0.000 -1.340
122 366.00 1200.00 83 346 0.760 10000.000 0.000 0.580 15000.000 0.000 -1.340
123 369.00 1200.00 65 284 0.760 10000.000 0.000 0.580 15000.000 0.000 -1.340
124 372.00 1200.00 66 255 0.760 10000.000 0.000 0.580 15000.000 0.000 -1.340
125 375.00 1200.00 68 199 0.760 10000.000 0.000 0.580 15000.000 0.000 -1.340
126 378.00 1200.00 69 210 0.760 10000.000 0.000 0.580 15000.000 0.000 -1.340
127 381.00 1200.00 92 190 0.760 10000.000 0.000 0.580 15000.000 0.000 -1.340
128 384.00 1200.00 71 179 0.760 10000.000 0.000 0.580 15000.000 0.000 -1.340
129 387.00 1200.00 83 163 0.760 10000.000 0.000 0.580 15000.000 0.000 -1.340
130 390.00 1200.00 101 228 0.760 10000.000 0.000 0.580 15000.000 0.000 -1.340
131 393.00 1200.00 115 234 0.760 10000.000 0.000 0.580 15000.000 0.000 -1.340
132 396.00 1200.00 110 265 0.760 10000.000 0.000 0.580 15000.000 0.000 -1.340
133 399.00 1200.00 124 286 0.760 10000.000 0.000 0.580 15000.000 0.000 -1.340
134 402.00 1200.00 147 345 0.760 10000.000 0.000 0.580 15000.000 0.000 -1.340
135 405.00 1200.00 146 349 0.760 10000.000 0.000 0.580 15000.000 0.000 -1.340
136 408.00 1200.00 159 379 0.760 10000.000 0.000 0.580 15000.000 0.000 -1.340
137 411.00 1200.00 188 392 0.760 10000.000 0.000 0.580 15000.000 0.000 -1.340
138 414.00 1200.00 177 364 0.760 10000.000 0.000 0.580 15000.000 0.000 -1.340
139 417.00 1200.00 175 427 0.760 10000.000 0.000 0.580 15000.000 0.000 -1.340
140 420.00 1200.00 187 398 0.760 10000.000 0.000 0.580 15000.000 0.000 -1.340
141 423.00 1200.00 175 407 0.760 10000.000 0.000 0.580 15000.000 0.000 -1.340
142 426.00 1200.00 148 416 0.760 10000.000 0.000 0.580 15000.000 0.000 -1.340
143 429.00 1200.00 146 360 0.760 10000.000 0.000 0.580 15000.000 0.000 -1.340
144 432.00 1200.00 127 347 0.760 10000.000 0.000 0.580 15000.000 0.000 -1.340
