# BinNR microsec tot-time (s)  O-Beam H-beam AUX Ampl(V) f(Hz) phase(deg) chi(pos)
0 0.00 1200.00 451 660 2 5.313 2000.000 0.000 0.220
1 25.00 1200.00 354 563 4 5.313 2000.000 0.000 0.220
2 50.00 1200.00 318 541 1 5.313 2000.000 0.000 0.220
3 75.00 1200.00 335 680 3 5.313 2000.000 0.000 0.220
4 100.00 1200.00 470 823 2 5.313 2000.000 0.000 0.220
5 125.00 1200.00 520 994 5 5.313 2000.000 0.000 0.220
6 150.00 1200.00 593 1008 6 5.313 2000.000 0.000 0.220
7 175.00 1200.00 588 1103 1 5.313 2000.000 0.000 0.220
8 200.00 1200.00 431 1014 2 5.313 2000.000 0.000 0.220
9 225.00 1200.00 302 970 3 5.313 2000.000 0.000 0.220
10 250.00 1200.00 167 987 3 5.313 2000.000 0.000 0.220
11 275.00 1200.00 130 766 6 5.313 2000.000 0.000 0.220
12 300.00 1200.00 115 654 1 5.313 2000.000 0.000 0.220
13 325.00 1200.00 118 595 2 5.313 2000.000 0.000 0.220
14 350.00 1200.00 147 583 4 5.313 2000.000 0.000 0.220
15 375.00 1200.00 243 684 3 5.313 2000.000 0.000 0.220
16 400.00 1200.00 411 773 5 5.313 2000.000 0.000 0.220
17 425.00 1200.00 567 843 2 5.313 2000.000 0.000 0.220
18 450.00 1200.00 641 871 3 5.313 2000.000 0.000 0.220
19 475.00 1200.00 528 783 2 5.313 2000.000 0.000 0.220
20 500.00 1200.00 479 641 3 5.313 2000.000 0.000 0.220
21 525.00 1200.00 356 585 2 5.313 2000.000 0.000 0.220
22 550.00 1200.00 348 546 3 5.313 2000.000 0.000 0.220
23 575.00 1200.00 349 681 0 5.313 2000.000 0.000 0.220
24 600.00 1200.00 434 832 1 5.313 2000.000 0.000 0.220
25 625.00 1200.00 555 970 2 5.313 2000.000 0.000 0.220
26 650.00 1200.00 601 990 2 5.313 2000.000 0.000 0.220
27 675.00 1200.00 563 1046 5 5.313 2000.000 0.000 0.220
28 700.00 1200.00 436 1002 2 5.313 2000.000 0.000 0.220
29 725.00 1200.00 284 1075 2 5.313 2000.000 0.000 0.220
30 750.00 1200.00 162 986 3 5.313 2000.000 0.000 0.220
31 775.00 1200.00 131 854 7 5.313 2000.000 0.000 0.220
32 800.00 1200.00 136 603 1 5.313 2000.000 0.000 0.220
33 825.00 1200.00 132 573 3 5.313 2000.000 0.000 0.220
34 850.00 1200.00 184 589 6 5.313 2000.000 0.000 0.220
35 875.00 1200.00 240 668 3 5.313 2000.000 0.000 0.220
36 900.00 1200.00 397 697 3 5.313 2000.000 0.000 0.220
37 925.00 1200.00 511 802 0 5.313 2000.000 0.000 0.220
38 950.00 1200.00 652 824 0 5.313 2000.000 0.000 0.220
39 975.00 1200.00 565 759 4 5.313 2000.000 0.000 0.220
