# BinNR microsec tot-time (s)  O-Beam H-beam AUX Ampl(V) f(Hz) phase(deg) chi(pos)
0 0.00 1200.00 196 861 0 0.000 5.373 2000.000 0.780
1 25.00 1200.00 162 753 3 0.000 5.373 2000.000 0.780
2 50.00 1200.00 169 686 2 0.000 5.373 2000.000 0.780
3 75.00 1200.00 166 620 4 0.000 5.373 2000.000 0.780
4 100.00 1200.00 187 566 2 0.000 5.373 2000.000 0.780
5 125.00 1200.00 223 638 1 0.000 5.373 2000.000 0.780
6 150.00 1200.00 296 721 4 0.000 5.373 2000.000 0.780
7 175.00 1200.00 422 687 0 0.000 5.373 2000.000 0.780
8 200.00 1200.00 464 721 3 0.000 5.373 2000.000 0.780
9 225.00 1200.00 449 632 4 0.000 5.373 2000.000 0.780
10 250.00 1200.00 405 607 3 0.000 5.373 2000.000 0.780
11 275.00 1200.00 347 568 3 0.000 5.373 2000.000 0.780
12 300.00 1200.00 316 638 3 0.000 5.373 2000.000 0.780
13 325.00 1200.00 298 650 5 0.000 5.373 2000.000 0.780
14 350.00 1200.00 360 798 2 0.000 5.373 2000.000 0.780
15 375.00 1200.00 437 820 2 0.000 5.373 2000.000 0.780
16 400.00 1200.00 471 858 1 0.000 5.373 2000.000 0.780
17 425.00 1200.00 387 822 0 0.000 5.373 2000.000 0.780
18 450.00 1200.00 294 905 1 0.000 5.373 2000.000 0.780
19 475.00 1200.00 244 869 1 0.000 5.373 2000.000 0.780
20 500.00 1200.00 182 838 3 0.000 5.373 2000.000 0.780
21 525.00 1200.00 153 750 4 0.000 5.373 2000.000 0.780
22 550.00 1200.00 162 653 2 0.000 5.373 2000.000 0.780
23 575.00 1200.00 188 587 5 0.000 5.373 2000.000 0.780
24 600.00 1200.00 194 599 3 0.000 5.373 2000.000 0.780
25 625.00 1200.00 231 652 2 0.000 5.373 2000.000 0.780
26 650.00 1200.00 308 704 4 0.000 5.373 2000.000 0.780
27 675.00 1200.00 386 735 2 0.000 5.373 2000.000 0.780
28 700.00 1200.00 471 693 1 0.000 5.373 2000.000 0.780
29 725.00 1200.00 453 701 5 0.000 5.373 2000.000 0.780
30 750.00 1200.00 376 659 1 0.000 5.373 2000.000 0.780
31 775.00 1200.00 322 560 5 0.000 5.373 2000.000 0.780
32 800.00 1200.00 323 600 3 0.000 5.373 2000.000 0.780
33 825.00 1200.00 360 691 4 0.000 5.373 2000.000 0.780
34 850.00 1200.00 368 843 0 0.000 5.373 2000.000 0.780
35 875.00 1200.00 419 805 2 0.000 5.373 2000.000 0.780
36 900.00 1200.00 450 909 3 0.000 5.373 2000.000 0.780
37 925.00 1200.00 419 945 0 0.000 5.373 2000.000 0.780
38 950.00 1200.00 306 890 5 0.000 5.373 2000.000 0.780
39 975.00 1200.00 221 858 3 0.000 5.373 2000.000 0.780
