# BinNR microsec tot-time (s)  O-Beam H-beam AUX Ampl(V) f(Hz) phase(deg) chi(pos)
0 0.00 1200.00 273 795 2 0.000 5.373 2000.000 0.209
1 25.00 1200.00 346 817 2 0.000 5.373 2000.000 0.209
2 50.00 1200.00 349 884 3 0.000 5.373 2000.000 0.209
3 75.00 1200.00 331 858 0 0.000 5.373 2000.000 0.209
4 100.00 1200.00 277 663 2 0.000 5.373 2000.000 0.209
5 125.00 1200.00 234 649 3 0.000 5.373 2000.000 0.209
6 150.00 1200.00 163 583 4 0.000 5.373 2000.000 0.209
7 175.00 1200.00 194 601 3 0.000 5.373 2000.000 0.209
8 200.00 1200.00 275 557 1 0.000 5.373 2000.000 0.209
9 225.00 1200.00 367 556 3 0.000 5.373 2000.000 0.209
10 250.00 1200.00 428 645 2 0.000 5.373 2000.000 0.209
11 275.00 1200.00 455 733 1 0.000 5.373 2000.000 0.209
12 300.00 1200.00 476 802 4 0.000 5.373 2000.000 0.209
13 325.00 1200.00 460 827 1 0.000 5.373 2000.000 0.209
14 350.00 1200.00 413 850 2 0.000 5.373 2000.000 0.209
15 375.00 1200.00 359 775 2 0.000 5.373 2000.000 0.209
16 400.00 1200.00 316 756 2 0.000 5.373 2000.000 0.209
17 425.00 1200.00 236 695 1 0.000 5.373 2000.000 0.209
18 450.00 1200.00 170 676 5 0.000 5.373 2000.000 0.209
19 475.00 1200.00 193 721 2 0.000 5.373 2000.000 0.209
20 500.00 1200.00 293 774 1 0.000 5.373 2000.000 0.209
21 525.00 1200.00 311 866 2 0.000 5.373 2000.000 0.209
22 550.00 1200.00 367 851 5 0.000 5.373 2000.000 0.209
23 575.00 1200.00 337 781 0 0.000 5.373 2000.000 0.209
24 600.00 1200.00 334 658 5 0.000 5.373 2000.000 0.209
25 625.00 1200.00 171 607 1 0.000 5.373 2000.000 0.209
26 650.00 1200.00 198 576 4 0.000 5.373 2000.000 0.209
27 675.00 1200.00 203 608 4 0.000 5.373 2000.000 0.209
28 700.00 1200.00 279 579 2 0.000 5.373 2000.000 0.209
29 725.00 1200.00 418 539 3 0.000 5.373 2000.000 0.209
30 750.00 1200.00 376 680 0 0.000 5.373 2000.000 0.209
31 775.00 1200.00 483 686 1 0.000 5.373 2000.000 0.209
32 800.00 1200.00 459 810 1 0.000 5.373 2000.000 0.209
33 825.00 1200.00 476 882 2 0.000 5.373 2000.000 0.209
34 850.00 1200.00 391 805 3 0.000 5.373 2000.000 0.209
35 875.00 1200.00 381 757 3 0.000 5.373 2000.000 0.209
36 900.00 1200.00 292 733 1 0.000 5.373 2000.000 0.209
37 925.00 1200.00 186 730 6 0.000 5.373 2000.000 0.209
38 950.00 1200.00 145 688 2 0.000 5.373 2000.000 0.209
39 975.00 1200.00 219 782 3 0.000 5.373 2000.000 0.209
