# BinNR microsec tot-time (s)  O-Beam H-beam AUX Ampl(V) f(Hz) phase(deg) chi(pos)
0 0.00 1200.00 314 663 2 0.000 5.373 2000.000 1.219
1 25.00 1200.00 291 591 2 0.000 5.373 2000.000 1.219
2 50.00 1200.00 255 584 4 0.000 5.373 2000.000 1.219
3 75.00 1200.00 300 608 0 0.000 5.373 2000.000 1.219
4 100.00 1200.00 348 741 5 0.000 5.373 2000.000 1.219
5 125.00 1200.00 393 824 2 0.000 5.373 2000.000 1.219
6 150.00 1200.00 449 849 2 0.000 5.373 2000.000 1.219
7 175.00 1200.00 433 842 0 0.000 5.373 2000.000 1.219
8 200.00 1200.00 387 883 3 0.000 5.373 2000.000 1.219
9 225.00 1200.00 282 863 4 0.000 5.373 2000.000 1.219
10 250.00 1200.00 196 750 3 0.000 5.373 2000.000 1.219
11 275.00 1200.00 179 723 1 0.000 5.373 2000.000 1.219
12 300.00 1200.00 171 588 0 0.000 5.373 2000.000 1.219
13 325.00 1200.00 161 614 2 0.000 5.373 2000.000 1.219
14 350.00 1200.00 191 630 0 0.000 5.373 2000.000 1.219
15 375.00 1200.00 261 681 2 0.000 5.373 2000.000 1.219
16 400.00 1200.00 372 731 3 0.000 5.373 2000.000 1.219
17 425.00 1200.00 427 747 6 0.000 5.373 2000.000 1.219
18 450.00 1200.00 454 772 2 0.000 5.373 2000.000 1.219
19 475.00 1200.00 377 741 5 0.000 5.373 2000.000 1.219
20 500.00 1200.00 296 681 1 0.000 5.373 2000.000 1.219
21 525.00 1200.00 276 599 4 0.000 5.373 2000.000 1.219
22 550.00 1200.00 267 579 4 0.000 5.373 2000.000 1.219
23 575.00 1200.00 274 653 6 0.000 5.373 2000.000 1.219
24 600.00 1200.00 311 732 2 0.000 5.373 2000.000 1.219
25 625.00 1200.00 389 793 6 0.000 5.373 2000.000 1.219
26 650.00 1200.00 490 805 2 0.000 5.373 2000.000 1.219
27 675.00 1200.00 444 874 1 0.000 5.373 2000.000 1.219
28 700.00 1200.00 337 913 3 0.000 5.373 2000.000 1.219
29 725.00 1200.00 261 845 1 0.000 5.373 2000.000 1.219
30 750.00 1200.00 230 778 2 0.000 5.373 2000.000 1.219
31 775.00 1200.00 153 693 3 0.000 5.373 2000.000 1.219
32 800.00 1200.00 174 599 2 0.000 5.373 2000.000 1.219
33 825.00 1200.00 188 566 2 0.000 5.373 2000.000 1.219
34 850.00 1200.00 218 612 0 0.000 5.373 2000.000 1.219
35 875.00 1200.00 276 678 1 0.000 5.373 2000.000 1.219
36 900.00 1200.00 321 714 0 0.000 5.373 2000.000 1.219
37 925.00 1200.00 435 783 1 0.000 5.373 2000.000 1.219
38 950.00 1200.00 453 801 3 0.000 5.373 2000.000 1.219
39 975.00 1200.00 398 721 2 0.000 5.373 2000.000 1.219
