# BinNR microsec tot-time (s)  O-Beam H-beam AUX Ampl(V) f(Hz) phase(deg) chi(pos)
0 0.00 1200.00 273 735 0 0.000 5.373 2000.000 1.077
1 25.00 1200.00 209 720 0 0.000 5.373 2000.000 1.077
2 50.00 1200.00 199 569 1 0.000 5.373 2000.000 1.077
3 75.00 1200.00 216 593 0 0.000 5.373 2000.000 1.077
4 100.00 1200.00 259 658 5 0.000 5.373 2000.000 1.077
5 125.00 1200.00 340 712 3 0.000 5.373 2000.000 1.077
6 150.00 1200.00 422 777 0 0.000 5.373 2000.000 1.077
7 175.00 1200.00 429 817 3 0.000 5.373 2000.000 1.077
8 200.00 1200.00 436 797 2 0.000 5.373 2000.000 1.077
9 225.00 1200.00 389 846 4 0.000 5.373 2000.000 1.077
10 250.00 1200.00 271 740 3 0.000 5.373 2000.000 1.077
11 275.00 1200.00 198 651 4 0.000 5.373 2000.000 1.077
12 300.00 1200.00 222 599 1 0.000 5.373 2000.000 1.077
13 325.00 1200.00 235 647 2 0.000 5.373 2000.000 1.077
14 350.00 1200.00 278 672 3 0.000 5.373 2000.000 1.077
15 375.00 1200.00 311 686 2 0.000 5.373 2000.000 1.077
16 400.00 1200.00 403 799 3 0.000 5.373 2000.000 1.077
17 425.00 1200.00 440 838 3 0.000 5.373 2000.000 1.077
18 450.00 1200.00 434 880 4 0.000 5.373 2000.000 1.077
19 475.00 1200.00 296 816 0 0.000 5.373 2000.000 1.077
20 500.00 1200.00 258 741 1 0.000 5.373 2000.000 1.077
21 525.00 1200.00 232 645 3 0.000 5.373 2000.000 1.077
22 550.00 1200.00 219 555 6 0.000 5.373 2000.000 1.077
23 575.00 1200.00 221 611 2 0.000 5.373 2000.000 1.077
24 600.00 1200.00 254 669 1 0.000 5.373 2000.000 1.077
25 625.00 1200.00 354 736 3 0.000 5.373 2000.000 1.077
26 650.00 1200.00 415 751 0 0.000 5.373 2000.000 1.077
27 675.00 1200.00 431 778 2 0.000 5.373 2000.000 1.077
28 700.00 1200.00 418 814 1 0.000 5.373 2000.000 1.077
29 725.00 1200.00 292 769 1 0.000 5.373 2000.000 1.077
30 750.00 1200.00 248 760 1 0.000 5.373 2000.000 1.077
31 775.00 1200.00 202 605 2 0.000 5.373 2000.000 1.077
32 800.00 1200.00 217 633 0 0.000 5.373 2000.000 1.077
33 825.00 1200.00 214 545 2 0.000 5.373 2000.000 1.077
34 850.00 1200.00 275 637 1 0.000 5.373 2000.000 1.077
35 875.00 1200.00 319 685 0 0.000 5.373 2000.000 1.077
36 900.00 1200.00 411 821 0 0.000 5.373 2000.000 1.077
37 925.00 1200.00 446 816 2 0.000 5.373 2000.000 1.077
38 950.00 1200.00 430 771 2 0.000 5.373 2000.000 1.077
39 975.00 1200.00 313 777 0 0.000 5.373 2000.000 1.077
