# BinNR microsec tot-time (s)  O-Beam H-beam AUX Ampl(V) f(Hz) phase(deg) chi(pos)
0 0.00 1200.00 293 717 6 0.000 5.373 2000.000 -0.956
1 25.00 1200.00 257 625 0 0.000 5.373 2000.000 -0.956
2 50.00 1200.00 269 558 2 0.000 5.373 2000.000 -0.956
3 75.00 1200.00 256 559 2 0.000 5.373 2000.000 -0.956
4 100.00 1200.00 288 684 5 0.000 5.373 2000.000 -0.956
5 125.00 1200.00 363 816 4 0.000 5.373 2000.000 -0.956
6 150.00 1200.00 437 846 2 0.000 5.373 2000.000 -0.956
7 175.00 1200.00 469 872 5 0.000 5.373 2000.000 -0.956
8 200.00 1200.00 413 806 1 0.000 5.373 2000.000 -0.956
9 225.00 1200.00 339 806 2 0.000 5.373 2000.000 -0.956
10 250.00 1200.00 235 861 4 0.000 5.373 2000.000 -0.956
11 275.00 1200.00 186 711 1 0.000 5.373 2000.000 -0.956
12 300.00 1200.00 179 616 0 0.000 5.373 2000.000 -0.956
13 325.00 1200.00 218 591 1 0.000 5.373 2000.000 -0.956
14 350.00 1200.00 249 621 5 0.000 5.373 2000.000 -0.956
15 375.00 1200.00 304 740 2 0.000 5.373 2000.000 -0.956
16 400.00 1200.00 397 730 3 0.000 5.373 2000.000 -0.956
17 425.00 1200.00 485 830 1 0.000 5.373 2000.000 -0.956
18 450.00 1200.00 457 829 2 0.000 5.373 2000.000 -0.956
19 475.00 1200.00 400 801 6 0.000 5.373 2000.000 -0.956
20 500.00 1200.00 307 715 3 0.000 5.373 2000.000 -0.956
21 525.00 1200.00 270 591 2 0.000 5.373 2000.000 -0.956
22 550.00 1200.00 224 589 1 0.000 5.373 2000.000 -0.956
23 575.00 1200.00 240 595 1 0.000 5.373 2000.000 -0.956
24 600.00 1200.00 267 648 1 0.000 5.373 2000.000 -0.956
25 625.00 1200.00 394 765 2 0.000 5.373 2000.000 -0.956
26 650.00 1200.00 447 847 5 0.000 5.373 2000.000 -0.956
27 675.00 1200.00 465 836 4 0.000 5.373 2000.000 -0.956
28 700.00 1200.00 359 839 0 0.000 5.373 2000.000 -0.956
29 725.00 1200.00 328 853 5 0.000 5.373 2000.000 -0.956
30 750.00 1200.00 232 724 4 0.000 5.373 2000.000 -0.956
31 775.00 1200.00 222 675 3 0.000 5.373 2000.000 -0.956
32 800.00 1200.00 179 598 3 0.000 5.373 2000.000 -0.956
33 825.00 1200.00 194 602 2 0.000 5.373 2000.000 -0.956
34 850.00 1200.00 224 625 5 0.000 5.373 2000.000 -0.956
35 875.00 1200.00 285 709 4 0.000 5.373 2000.000 -0.956
36 900.00 1200.00 417 785 2 0.000 5.373 2000.000 -0.956
37 925.00 1200.00 467 818 1 0.000 5.373 2000.000 -0.956
38 950.00 1200.00 435 781 3 0.000 5.373 2000.000 -0.956
39 975.00 1200.00 410 729 1 0.000 5.373 2000.000 -0.956
