# BinNR microsec tot-time (s)  O-Beam AUX Ampl_1(V) f_1(Hz) phase_1(deg) Ampl_2(V) f_2(Hz) phase_2(deg) chi(pos)
0 0.00 1500.01 93 156 0.740 10000.000 0.000 0.610 15000.000 0.000 -0.505
1 3.00 1500.01 162 313 0.740 10000.000 0.000 0.610 15000.000 0.000 -0.505
2 6.00 1500.01 157 320 0.740 10000.000 0.000 0.610 15000.000 0.000 -0.505
3 9.00 1500.01 203 336 0.740 10000.000 0.000 0.610 15000.000 0.000 -0.505
4 12.00 1500.01 162 312 0.740 10000.000 0.000 0.610 15000.000 0.000 -0.505
5 15.00 1500.01 177 329 0.740 10000.000 0.000 0.610 15000.000 0.000 -0.505
6 18.00 1500.01 173 372 0.740 10000.000 0.000 0.610 15000.000 0.000 -0.505
7 21.00 1500.01 195 375 0.740 10000.000 0.000 0.610 15000.000 0.000 -0.505
8 24.00 1500.01 201 373 0.740 10000.000 0.000 0.610 15000.000 0.000 -0.505
9 27.00 1500.01 175 410 0.740 10000.000 0.000 0.610 15000.000 0.000 -0.505
10 30.00 1500.01 210 432 0.740 10000.000 0.000 0.610 15000.000 0.000 -0.505
11 33.00 1500.01 174 422 0.740 10000.000 0.000 0.610 15000.000 0.000 -0.505
12 36.00 1500.01 178 405 0.740 10000.000 0.000 0.610 15000.000 0.000 -0.505
13 39.00 1500.01 232 388 0.740 10000.000 0.000 0.610 15000.000 0.000 -0.505
14 42.00 1500.01 206 359 0.740 10000.000 0.000 0.610 15000.000 0.000 -0.505
15 45.00 1500.01 197 378 0.740 10000.000 0.000 0.610 15000.000 0.000 -0.505
16 48.00 1500.01 214 323 0.740 10000.000 0.000 0.610 15000.000 0.000 -0.505
17 51.00 1500.01 198 376 0.740 10000.000 0.000 0.610 15000.000 0.000 -0.505
18 54.00 1500.01 219 327 0.740 10000.000 0.000 0.610 15000.000 0.000 -0.505
19 57.00 1500.01 200 350 0.740 10000.000 0.000 0.610 15000.000 0.000 -0.505
20 60.00 1500.01 209 332 0.740 10000.000 0.000 0.610 15000.000 0.000 -0.505
21 63.00 1500.01 188 345 0.740 10000.000 0.000 0.610 15000.000 0.000 -0.505
22 66.00 1500.01 161 388 0.740 10000.000 0.000 0.610 15000.000 0.000 -0.505
23 69.00 1500.01 189 407 0.740 10000.000 0.000 0.610 15000.000 0.000 -0.505
24 72.00 1500.01 152 439 0.740 10000.000 0.000 0.610 15000.000 0.000 -0.505
25 75.00 1500.01 150 475 0.740 10000.000 0.000 0.610 15000.000 0.000 -0.505
26 78.00 1500.01 136 514 0.740 10000.000 0.000 0.610 15000.000 0.000 -0.505
27 81.00 1500.01 139 515 0.740 10000.000 0.000 0.610 15000.000 0.000 -0.505
28 84.00 1500.01 146 530 0.740 10000.000 0.000 0.610 15000.000 0.000 -0.505
29 87.00 1500.01 128 513 0.740 10000.000 0.000 0.610 15000.000 0.000 -0.505
30 90.00 1500.01 154 502 0.740 10000.000 0.000 0.610 15000.000 0.000 -0.505
31 93.00 1500.01 159 530 0.740 10000.000 0.000 0.610 15000.000 0.000 -0.505
32 96.00 1500.01 149 528 0.740 10000.000 0.000 0.610 15000.000 0.000 -0.505
33 99.00 1500.01 173 478 0.740 10000.000 0.000 0.610 15000.000 0.000 -0.505
34 102.00 1500.01 153 465 0.740 10000.000 0.000 0.610 15000.000 0.000 -0.505
35 105.00 1500.01 183 420 0.740 10000.000 0.000 0.610 15000.000 0.000 -0.505
36 108.00 1500.01 181 419 0.740 10000.000 0.000 0.610 15000.000 0.000 -0.505
37 111.00 1500.01 178 409 0.740 10000.000 0.000 0.610 15000.000 0.000 -0.505
38 114.00 1500.01 176 413 0.740 10000.000 0.000 0.610 15000.000 0.000 -0.505
39 117.00 1500.01 206 330 0.740 10000.000 0.000 0.610 15000.000 0.000 -0.505
40 120.00 1500.01 193 356 0.740 10000.000 0.000 0.610 15000.000 0.000 -0.505
41 123.00 1500.01 200 358 0.740 10000.000 0.000 0.610 15000.000 0.000 -0.505
42 126.00 1500.01 190 359 0.740 10000.000 0.000 0.610 15000.000 0.000 -0.505
43 129.00 1500.01 235 359 0.740 10000.000 0.000 0.610 15000.000 0.000 -0.505
44 132.00 1500.01 186 407 0.740 10000.000 0.000 0.610 15000.000 0.000 -0.505
45 135.00 1500.01 199 421 0.740 10000.000 0.000 0.610 15000.000 0.000 -0.505
46 138.00 1500.01 199 406 0.740 10000.000 0.000 0.610 15000.000 0.000 -0.505
47 141.00 1500.01 198 358 0.740 10000.000 0.000 0.610 15000.000 0.000 -0.505
48 144.00 1500.01 188 417 0.740 10000.000 0.000 0.610 15000.000 0.000 -0.505
49 147.00 1500.01 176 401 0.740 10000.000 0.000 0.610 15000.000 0.000 -0.505
50 150.00 1500.01 161 401 0.740 10000.000 0.000 0.610 15000.000 0.000 -0.505
51 153.00 1500.01 180 387 0.740 10000.000 0.000 0.610 15000.000 0.000 -0.505
52 156.00 1500.01 162 391 0.740 10000.000 0.000 0.610 15000.000 0.000 -0.505
53 159.00 1500.01 170 393 0.740 10000.000 0.000 0.610 15000.000 0.000 -0.505
54 162.00 1500.01 174 409 0.740 10000.000 0.000 0.610 15000.000 0.000 -0.505
55 165.00 1500.01 177 393 0.740 10000.000 0.000 0.610 15000.000 0.000 -0.505
56 168.00 1500.01 156 355 0.740 10000.000 0.000 0.610 15000.000 0.000 -0.505
57 171.00 1500.01 184 348 0.740 10000.000 0.000 0.610 15000.000 0.000 -0.505
58 174.00 1500.01 189 373 0.740 10000.000 0.000 0.610 15000.000 0.000 -0.505
59 177.00 1500.01 157 374 0.740 10000.000 0.000 0.610 15000.000 0.000 -0.505
60 180.00 1500.01 155 355 0.740 10000.000 0.000 0.610 15000.000 0.000 -0.505
61 183.00 1500.01 157 391 0.740 10000.000 0.000 0.610 15000.000 0.000 -0.505
62 186.00 1500.01 183 413 0.740 10000.000 0.000 0.610 15000.000 0.000 -0.505
63 189.00 1500.01 155 411 0.740 10000.000 0.000 0.610 15000.000 0.000 -0.505
64 192.00 1500.01 169 449 0.740 10000.000 0.000 0.610 15000.000 0.000 -0.505
65 195.00 1500.01 184 450 0.740 10000.000 0.000 0.610 15000.000 0.000 -0.505
66 198.00 1500.01 182 473 0.740 10000.000 0.000 0.610 15000.000 0.000 -0.505
67 201.00 1500.01 170 493 0.740 10000.000 0.000 0.610 15000.000 0.000 -0.505
68 204.00 1500.01 189 493 0.740 10000.000 0.000 0.610 15000.000 0.000 -0.505
69 207.00 1500.01 138 535 0.740 10000.000 0.000 0.610 15000.000 0.000 -0.505
70 210.00 1500.01 185 504 0.740 10000.000 0.000 0.610 15000.000 0.000 -0.505
71 213.00 1500.01 157 513 0.740 10000.000 0.000 0.610 15000.000 0.000 -0.505
72 216.00 1500.01 159 523 0.740 10000.000 0.000 0.610 15000.000 0.000 -0.505
73 219.00 1500.01 161 483 0.740 10000.000 0.000 0.610 15000.000 0.000 -0.505
74 222.00 1500.01 168 468 0.740 10000.000 0.000 0.610 15000.000 0.000 -0.505
75 225.00 1500.01 188 443 0.740 10000.000 0.000 0.610 15000.000 0.000 -0.505
76 228.00 1500.01 171 447 0.740 10000.000 0.000 0.610 15000.000 0.000 -0.505
77 231.00 1500.01 206 367 0.740 10000.000 0.000 0.610 15000.000 0.000 -0.505
78 234.00 1500.01 207 351 0.740 10000.000 0.000 0.610 15000.000 0.000 -0.505
79 237.00 1500.01 200 322 0.740 10000.000 0.000 0.610 15000.000 0.000 -0.505
80 240.00 1500.01 201 305 0.740 10000.000 0.000 0.610 15000.000 0.000 -0.505
81 243.00 1500.01 160 267 0.740 10000.000 0.000 0.610 15000.000 0.000 -0.505
82 246.00 1500.01 210 289 0.740 10000.000 0.000 0.610 15000.000 0.000 -0.505
83 249.00 1500.01 222 250 0.740 10000.000 0.000 0.610 15000.000 0.000 -0.505
84 252.00 1500.01 180 271 0.740 10000.000 0.000 0.610 15000.000 0.000 -0.505
85 255.00 1500.01 201 320 0.740 10000.000 0.000 0.610 15000.000 0.000 -0.505
86 258.00 1500.01 204 312 0.740 10000.000 0.000 0.610 15000.000 0.000 -0.505
87 261.00 1500.01 184 325 0.740 10000.000 0.000 0.610 15000.000 0.000 -0.505
88 264.00 1500.01 185 357 0.740 10000.000 0.000 0.610 15000.000 0.000 -0.505
89 267.00 1500.01 183 399 0.740 10000.000 0.000 0.610 15000.000 0.000 -0.505
90 270.00 1500.01 165 445 0.740 10000.000 0.000 0.610 15000.000 0.000 -0.505
91 273.00 1500.01 162 470 0.740 10000.000 0.000 0.610 15000.000 0.000 -0.505
92 276.00 1500.01 154 501 0.740 10000.000 0.000 0.610 15000.000 0.000 -0.505
93 279.00 1500.01 148 505 0.740 10000.000 0.000 0.610 15000.000 0.000 -0.505
94 282.00 1500.01 159 523 0.740 10000.000 0.000 0.610 15000.000 0.000 -0.505
95 285.00 1500.01 174 553 0.740 10000.000 0.000 0.610 15000.000 0.000 -0.505
96 288.00 1500.01 165 544 0.740 10000.000 0.000 0.610 15000.000 0.000 -0.505
97 291.00 1500.01 152 506 0.740 10000.000 0.000 0.610 15000.000 0.000 -0.505
98 294.00 1500.01 168 537 0.740 10000.000 0.000 0.610 15000.000 0.000 -0.505
99 297.00 1500.01 140 468 0.740 10000.000 0.000 0.610 15000.000 0.000 -0.505
100 300.00 1500.01 183 444 0.740 10000.000 0.000 0.610 15000.000 0.000 -0.505
101 303.00 1500.01 182 429 0.740 10000.000 0.000 0.610 15000.000 0.000 -0.505
102 306.00 1500.01 166 429 0.740 10000.000 0.000 0.610 15000.000 0.000 -0.505
103 309.00 1500.01 190 422 0.740 10000.000 0.000 0.610 15000.000 0.000 -0.505
104 312.00 1500.01 176 367 0.740 10000.000 0.000 0.610 15000.000 0.000 -0.505
105 315.00 1500.01 187 383 0.740 10000.000 0.000 0.610 15000.000 0.000 -0.505
106 318.00 1500.01 184 385 0.740 10000.000 0.000 0.610 15000.000 0.000 -0.505
107 321.00 1500.01 149 363 0.740 10000.000 0.000 0.610 15000.000 0.000 -0.505
108 324.00 1500.01 140 377 0.740 10000.000 0.000 0.610 15000.000 0.000 -0.505
109 327.00 1500.01 178 392 0.740 10000.000 0.000 0.610 15000.000 0.000 -0.505
110 330.00 1500.01 162 357 0.740 10000.000 0.000 0.610 15000.000 0.000 -0.505
111 333.00 1500.01 152 331 0.740 10000.000 0.000 0.610 15000.000 0.000 -0.505
112 336.00 1500.01 175 368 0.740 10000.000 0.000 0.610 15000.000 0.000 -0.505
113 339.00 1500.01 172 393 0.740 10000.000 0.000 0.610 15000.000 0.000 -0.505
114 342.00 1500.01 175 438 0.740 10000.000 0.000 0.610 15000.000 0.000 -0.505
115 345.00 1500.01 176 407 0.740 10000.000 0.000 0.610 15000.000 0.000 -0.505
116 348.00 1500.01 187 404 0.740 10000.000 0.000 0.610 15000.000 0.000 -0.505
117 351.00 1500.01 173 395 0.740 10000.000 0.000 0.610 15000.000 0.000 -0.505
118 354.00 1500.01 241 423 0.740 10000.000 0.000 0.610 15000.000 0.000 -0.505
119 357.00 1500.01 214 408 0.740 10000.000 0.000 0.610 15000.000 0.000 -0.505
120 360.00 1500.01 194 384 0.740 10000.000 0.000 0.610 15000.000 0.000 -0.505
121 363.00 1500.01 209 398 0.740 10000.000 0.000 0.610 15000.000 0.000 -0.505
122 366.00 1500.01 231 374 0.740 10000.000 0.000 0.610 15000.000 0.000 -0.505
123 369.00 1500.01 180 379 0.740 10000.000 0.000 0.610 15000.000 0.000 -0.505
124 372.00 1500.01 191 383 0.740 10000.000 0.000 0.610 15000.000 0.000 -0.505
125 375.00 1500.01 198 411 0.740 10000.000 0.000 0.610 15000.000 0.000 -0.505
126 378.00 1500.01 190 357 0.740 10000.000 0.000 0.610 15000.000 0.000 -0.505
127 381.00 1500.01 174 386 0.740 10000.000 0.000 0.610 15000.000 0.000 -0.505
128 384.00 1500.01 172 386 0.740 10000.000 0.000 0.610 15000.000 0.000 -0.505
129 387.00 1500.01 171 372 0.740 10000.000 0.000 0.610 15000.000 0.000 -0.505
130 390.00 1500.01 153 455 0.740 10000.000 0.000 0.610 15000.000 0.000 -0.505
131 393.00 1500.01 174 426 0.740 10000.000 0.000 0.610 15000.000 0.000 -0.505
132 396.00 1500.01 143 491 0.740 10000.000 0.000 0.610 15000.000 0.000 -0.505
133 399.00 1500.01 157 492 0.740 10000.000 0.000 0.610 15000.000 0.000 -0.505
134 402.00 1500.01 166 500 0.740 10000.000 0.000 0.610 15000.000 0.000 -0.505
135 405.00 1500.01 175 502 0.740 10000.000 0.000 0.610 15000.000 0.000 -0.505
136 408.00 1500.01 195 516 0.740 10000.000 0.000 0.610 15000.000 0.000 -0.505
137 411.00 1500.01 154 529 0.740 10000.000 0.000 0.610 15000.000 0.000 -0.505
138 414.00 1500.01 199 502 0.740 10000.000 0.000 0.610 15000.000 0.000 -0.505
139 417.00 1500.01 190 505 0.740 10000.000 0.000 0.610 15000.000 0.000 -0.505
140 420.00 1500.01 163 498 0.740 10000.000 0.000 0.610 15000.000 0.000 -0.505
141 423.00 1500.01 191 453 0.740 10000.000 0.000 0.610 15000.000 0.000 -0.505
142 426.00 1500.01 159 448 0.740 10000.000 0.000 0.610 15000.000 0.000 -0.505
143 429.00 1500.01 153 419 0.740 10000.000 0.000 0.610 15000.000 0.000 -0.505
144 432.00 1500.01 152 362 0.740 10000.000 0.000 0.610 15000.000 0.000 -0.505
