# BinNR microsec tot-time (s)  O-Beam AUX Ampl_1(V) f_1(Hz) phase_1(deg) Ampl_2(V) f_2(Hz) phase_2(deg) chi(pos)
0 0.00 1500.02 113 354 0.740 10000.000 0.000 0.610 15000.000 0.000 -1.165
1 3.00 1500.02 268 703 0.740 10000.000 0.000 0.610 15000.000 0.000 -1.165
2 6.00 1500.02 247 678 0.740 10000.000 0.000 0.610 15000.000 0.000 -1.165
3 9.00 1500.02 256 731 0.740 10000.000 0.000 0.610 15000.000 0.000 -1.165
4 12.00 1500.02 236 658 0.740 10000.000 0.000 0.610 15000.000 0.000 -1.165
5 15.00 1500.02 249 666 0.740 10000.000 0.000 0.610 15000.000 0.000 -1.165
6 18.00 1500.02 241 719 0.740 10000.000 0.000 0.610 15000.000 0.000 -1.165
7 21.00 1500.02 265 654 0.740 10000.000 0.000 0.610 15000.000 0.000 -1.165
8 24.00 1500.02 208 669 0.740 10000.000 0.000 0.610 15000.000 0.000 -1.165
9 27.00 1500.02 217 672 0.740 10000.000 0.000 0.610 15000.000 0.000 -1.165
10 30.00 1500.02 222 652 0.740 10000.000 0.000 0.610 15000.000 0.000 -1.165
11 33.00 1500.02 231 698 0.740 10000.000 0.000 0.610 15000.000 0.000 -1.165
12 36.00 1500.02 197 684 0.740 10000.000 0.000 0.610 15000.000 0.000 -1.165
13 39.00 1500.02 219 672 0.740 10000.000 0.000 0.610 15000.000 0.000 -1.165
14 42.00 1500.02 209 688 0.740 10000.000 0.000 0.610 15000.000 0.000 -1.165
15 45.00 1500.02 197 667 0.740 10000.000 0.000 0.610 15000.000 0.000 -1.165
16 48.00 1500.02 212 708 0.740 10000.000 0.000 0.610 15000.000 0.000 -1.165
17 51.00 1500.02 243 688 0.740 10000.000 0.000 0.610 15000.000 0.000 -1.165
18 54.00 1500.02 203 729 0.740 10000.000 0.000 0.610 15000.000 0.000 -1.165
19 57.00 1500.02 212 686 0.740 10000.000 0.000 0.610 15000.000 0.000 -1.165
20 60.00 1500.02 219 668 0.740 10000.000 0.000 0.610 15000.000 0.000 -1.165
21 63.00 1500.02 235 648 0.740 10000.000 0.000 0.610 15000.000 0.000 -1.165
22 66.00 1500.02 241 727 0.740 10000.000 0.000 0.610 15000.000 0.000 -1.165
23 69.00 1500.02 236 682 0.740 10000.000 0.000 0.610 15000.000 0.000 -1.165
24 72.00 1500.02 223 654 0.740 10000.000 0.000 0.610 15000.000 0.000 -1.165
25 75.00 1500.02 238 661 0.740 10000.000 0.000 0.610 15000.000 0.000 -1.165
26 78.00 1500.02 248 648 0.740 10000.000 0.000 0.610 15000.000 0.000 -1.165
27 81.00 1500.02 220 573 0.740 10000.000 0.000 0.610 15000.000 0.000 -1.165
28 84.00 1500.02 223 621 0.740 10000.000 0.000 0.610 15000.000 0.000 -1.165
29 87.00 1500.02 240 607 0.740 10000.000 0.000 0.610 15000.000 0.000 -1.165
30 90.00 1500.02 260 648 0.740 10000.000 0.000 0.610 15000.000 0.000 -1.165
31 93.00 1500.02 215 606 0.740 10000.000 0.000 0.610 15000.000 0.000 -1.165
32 96.00 1500.02 242 646 0.740 10000.000 0.000 0.610 15000.000 0.000 -1.165
33 99.00 1500.02 227 615 0.740 10000.000 0.000 0.610 15000.000 0.000 -1.165
34 102.00 1500.02 240 679 0.740 10000.000 0.000 0.610 15000.000 0.000 -1.165
35 105.00 1500.02 210 642 0.740 10000.000 0.000 0.610 15000.000 0.000 -1.165
36 108.00 1500.02 238 682 0.740 10000.000 0.000 0.610 15000.000 0.000 -1.165
37 111.00 1500.02 213 698 0.740 10000.000 0.000 0.610 15000.000 0.000 -1.165
38 114.00 1500.02 216 707 0.740 10000.000 0.000 0.610 15000.000 0.000 -1.165
39 117.00 1500.02 219 735 0.740 10000.000 0.000 0.610 15000.000 0.000 -1.165
40 120.00 1500.02 223 710 0.740 10000.000 0.000 0.610 15000.000 0.000 -1.165
41 123.00 1500.02 224 665 0.740 10000.000 0.000 0.610 15000.000 0.000 -1.165
42 126.00 1500.02 205 738 0.740 10000.000 0.000 0.610 15000.000 0.000 -1.165
43 129.00 1500.02 221 725 0.740 10000.000 0.000 0.610 15000.000 0.000 -1.165
44 132.00 1500.02 233 718 0.740 10000.000 0.000 0.610 15000.000 0.000 -1.165
45 135.00 1500.02 217 690 0.740 10000.000 0.000 0.610 15000.000 0.000 -1.165
46 138.00 1500.02 226 676 0.740 10000.000 0.000 0.610 15000.000 0.000 -1.165
47 141.00 1500.02 206 684 0.740 10000.000 0.000 0.610 15000.000 0.000 -1.165
48 144.00 1500.02 210 733 0.740 10000.000 0.000 0.610 15000.000 0.000 -1.165
49 147.00 1500.02 230 695 0.740 10000.000 0.000 0.610 15000.000 0.000 -1.165
50 150.00 1500.02 259 694 0.740 10000.000 0.000 0.610 15000.000 0.000 -1.165
51 153.00 1500.02 243 684 0.740 10000.000 0.000 0.610 15000.000 0.000 -1.165
52 156.00 1500.02 222 684 0.740 10000.000 0.000 0.610 15000.000 0.000 -1.165
53 159.00 1500.02 268 688 0.740 10000.000 0.000 0.610 15000.000 0.000 -1.165
54 162.00 1500.02 256 692 0.740 10000.000 0.000 0.610 15000.000 0.000 -1.165
55 165.00 1500.02 236 699 0.740 10000.000 0.000 0.610 15000.000 0.000 -1.165
56 168.00 1500.02 232 717 0.740 10000.000 0.000 0.610 15000.000 0.000 -1.165
57 171.00 1500.02 231 718 0.740 10000.000 0.000 0.610 15000.000 0.000 -1.165
58 174.00 1500.02 210 746 0.740 10000.000 0.000 0.610 15000.000 0.000 -1.165
59 177.00 1500.02 241 620 0.740 10000.000 0.000 0.610 15000.000 0.000 -1.165
60 180.00 1500.02 253 661 0.740 10000.000 0.000 0.610 15000.000 0.000 -1.165
61 183.00 1500.02 249 718 0.740 10000.000 0.000 0.610 15000.000 0.000 -1.165
62 186.00 1500.02 245 687 0.740 10000.000 0.000 0.610 15000.000 0.000 -1.165
63 189.00 1500.02 227 676 0.740 10000.000 0.000 0.610 15000.000 0.000 -1.165
64 192.00 1500.02 258 620 0.740 10000.000 0.000 0.610 15000.000 0.000 -1.165
65 195.00 1500.02 217 618 0.740 10000.000 0.000 0.610 15000.000 0.000 -1.165
66 198.00 1500.02 244 656 0.740 10000.000 0.000 0.610 15000.000 0.000 -1.165
67 201.00 1500.02 247 618 0.740 10000.000 0.000 0.610 15000.000 0.000 -1.165
68 204.00 1500.02 234 610 0.740 10000.000 0.000 0.610 15000.000 0.000 -1.165
69 207.00 1500.02 225 636 0.740 10000.000 0.000 0.610 15000.000 0.000 -1.165
70 210.00 1500.02 276 623 0.740 10000.000 0.000 0.610 15000.000 0.000 -1.165
71 213.00 1500.02 219 621 0.740 10000.000 0.000 0.610 15000.000 0.000 -1.165
72 216.00 1500.02 226 619 0.740 10000.000 0.000 0.610 15000.000 0.000 -1.165
73 219.00 1500.02 197 627 0.740 10000.000 0.000 0.610 15000.000 0.000 -1.165
74 222.00 1500.02 237 615 0.740 10000.000 0.000 0.610 15000.000 0.000 -1.165
75 225.00 1500.02 246 682 0.740 10000.000 0.000 0.610 15000.000 0.000 -1.165
76 228.00 1500.02 229 718 0.740 10000.000 0.000 0.610 15000.000 0.000 -1.165
77 231.00 1500.02 192 688 0.740 10000.000 0.000 0.610 15000.000 0.000 -1.165
78 234.00 1500.02 206 729 0.740 10000.000 0.000 0.610 15000.000 0.000 -1.165
79 237.00 1500.02 219 696 0.740 10000.000 0.000 0.610 15000.000 0.000 -1.165
80 240.00 1500.02 224 723 0.740 10000.000 0.000 0.610 15000.000 0.000 -1.165
81 243.00 1500.02 219 680 0.740 10000.000 0.000 0.610 15000.000 0.000 -1.165
82 246.00 1500.02 222 683 0.740 10000.000 0.000 0.610 15000.000 0.000 -1.165
83 249.00 1500.02 203 646 0.740 10000.000 0.000 0.610 15000.000 0.000 -1.165
84 252.00 1500.02 205 700 0.740 10000.000 0.000 0.610 15000.000 0.000 -1.165
85 255.00 1500.02 212 677 0.740 10000.000 0.000 0.610 15000.000 0.000 -1.165
86 258.00 1500.02 212 664 0.740 10000.000 0.000 0.610 15000.000 0.000 -1.165
87 261.00 1500.02 230 664 0.740 10000.000 0.000 0.610 15000.000 0.000 -1.165
88 264.00 1500.02 261 683 0.740 10000.000 0.000 0.610 15000.000 0.000 -1.165
89 267.00 1500.02 240 646 0.740 10000.000 0.000 0.610 15000.000 0.000 -1.165
90 270.00 1500.02 234 686 0.740 10000.000 0.000 0.610 15000.000 0.000 -1.165
91 273.00 1500.02 240 665 0.740 10000.000 0.000 0.610 15000.000 0.000 -1.165
92 276.00 1500.02 231 666 0.740 10000.000 0.000 0.610 15000.000 0.000 -1.165
93 279.00 1500.02 239 603 0.740 10000.000 0.000 0.610 15000.000 0.000 -1.165
94 282.00 1500.02 246 666 0.740 10000.000 0.000 0.610 15000.000 0.000 -1.165
95 285.00 1500.02 240 656 0.740 10000.000 0.000 0.610 15000.000 0.000 -1.165
96 288.00 1500.02 263 676 0.740 10000.000 0.000 0.610 15000.000 0.000 -1.165
97 291.00 1500.02 252 626 0.740 10000.000 0.000 0.610 15000.000 0.000 -1.165
98 294.00 1500.02 228 609 0.740 10000.000 0.000 0.610 15000.000 0.000 -1.165
99 297.00 1500.02 221 602 0.740 10000.000 0.000 0.610 15000.000 0.000 -1.165
100 300.00 1500.02 206 647 0.740 10000.000 0.000 0.610 15000.000 0.000 -1.165
101 303.00 1500.02 239 680 0.740 10000.000 0.000 0.610 15000.000 0.000 -1.165
102 306.00 1500.02 246 693 0.740 10000.000 0.000 0.610 15000.000 0.000 -1.165
103 309.00 1500.02 230 672 0.740 10000.000 0.000 0.610 15000.000 0.000 -1.165
104 312.00 1500.02 254 718 0.740 10000.000 0.000 0.610 15000.000 0.000 -1.165
105 315.00 1500.02 209 688 0.740 10000.000 0.000 0.610 15000.000 0.000 -1.165
106 318.00 1500.02 236 659 0.740 10000.000 0.000 0.610 15000.000 0.000 -1.165
107 321.00 1500.02 235 676 0.740 10000.000 0.000 0.610 15000.000 0.000 -1.165
108 324.00 1500.02 220 651 0.740 10000.000 0.000 0.610 15000.000 0.000 -1.165
109 327.00 1500.02 219 652 0.740 10000.000 0.000 0.610 15000.000 0.000 -1.165
110 330.00 1500.02 246 764 0.740 10000.000 0.000 0.610 15000.000 0.000 -1.165
111 333.00 1500.02 233 690 0.740 10000.000 0.000 0.610 15000.000 0.000 -1.165
112 336.00 1500.02 236 682 0.740 10000.000 0.000 0.610 15000.000 0.000 -1.165
113 339.00 1500.02 236 632 0.740 10000.000 0.000 0.610 15000.000 0.000 -1.165
114 342.00 1500.02 203 742 0.740 10000.000 0.000 0.610 15000.000 0.000 -1.165
115 345.00 1500.02 219 688 0.740 10000.000 0.000 0.610 15000.000 0.000 -1.165
116 348.00 1500.02 228 662 0.740 10000.000 0.000 0.610 15000.000 0.000 -1.165
117 351.00 1500.02 195 674 0.740 10000.000 0.000 0.610 15000.000 0.000 -1.165
118 354.00 1500.02 229 642 0.740 10000.000 0.000 0.610 15000.000 0.000 -1.165
119 357.00 1500.02 216 695 0.740 10000.000 0.000 0.610 15000.000 0.000 -1.165
120 360.00 1500.02 208 681 0.740 10000.000 0.000 0.610 15000.000 0.000 -1.165
121 363.00 1500.02 202 711 0.740 10000.000 0.000 0.610 15000.000 0.000 -1.165
122 366.00 1500.02 230 734 0.740 10000.000 0.000 0.610 15000.000 0.000 -1.165
123 369.00 1500.02 227 687 0.740 10000.000 0.000 0.610 15000.000 0.000 -1.165
124 372.00 1500.02 206 729 0.740 10000.000 0.000 0.610 15000.000 0.000 -1.165
125 375.00 1500.02 220 691 0.740 10000.000 0.000 0.610 15000.000 0.000 -1.165
126 378.00 1500.02 215 722 0.740 10000.000 0.000 0.610 15000.000 0.000 -1.165
127 381.00 1500.02 212 669 0.740 10000.000 0.000 0.610 15000.000 0.000 -1.165
128 384.00 1500.02 211 693 0.740 10000.000 0.000 0.610 15000.000 0.000 -1.165
129 387.00 1500.02 226 692 0.740 10000.000 0.000 0.610 15000.000 0.000 -1.165
130 390.00 1500.02 223 673 0.740 10000.000 0.000 0.610 15000.000 0.000 -1.165
131 393.00 1500.02 217 680 0.740 10000.000 0.000 0.610 15000.000 0.000 -1.165
132 396.00 1500.02 228 666 0.740 10000.000 0.000 0.610 15000.000 0.000 -1.165
133 399.00 1500.02 242 641 0.740 10000.000 0.000 0.610 15000.000 0.000 -1.165
134 402.00 1500.02 233 688 0.740 10000.000 0.000 0.610 15000.000 0.000 -1.165
135 405.00 1500.02 217 580 0.740 10000.000 0.000 0.610 15000.000 0.000 -1.165
136 408.00 1500.02 232 641 0.740 10000.000 0.000 0.610 15000.000 0.000 -1.165
137 411.00 1500.02 243 628 0.740 10000.000 0.000 0.610 15000.000 0.000 -1.165
138 414.00 1500.02 235 613 0.740 10000.000 0.000 0.610 15000.000 0.000 -1.165
139 417.00 1500.02 241 579 0.740 10000.000 0.000 0.610 15000.000 0.000 -1.165
140 420.00 1500.02 239 660 0.740 10000.000 0.000 0.610 15000.000 0.000 -1.165
141 423.00 1500.02 247 642 0.740 10000.000 0.000 0.610 15000.000 0.000 -1.165
142 426.00 1500.02 248 669 0.740 10000.000 0.000 0.610 15000.000 0.000 -1.165
143 429.00 1500.02 249 646 0.740 10000.000 0.000 0.610 15000.000 0.000 -1.165
144 432.00 1500.02 237 693 0.740 10000.000 0.000 0.610 15000.000 0.000 -1.165
