# BinNR microsec tot-time (s)  O-Beam AUX Ampl(V) f(Hz) phase(deg) chi(pos)
0 0.00 1200.01 110 298 3.335 10000.000 0.000 0.077
1 3.00 1200.01 249 602 3.335 10000.000 0.000 0.077
2 6.00 1200.01 223 600 3.335 10000.000 0.000 0.077
3 9.00 1200.01 237 543 3.335 10000.000 0.000 0.077
4 12.00 1200.01 263 488 3.335 10000.000 0.000 0.077
5 15.00 1200.01 256 377 3.335 10000.000 0.000 0.077
6 18.00 1200.01 265 331 3.335 10000.000 0.000 0.077
7 21.00 1200.01 215 270 3.335 10000.000 0.000 0.077
8 24.00 1200.01 250 214 3.335 10000.000 0.000 0.077
9 27.00 1200.01 245 226 3.335 10000.000 0.000 0.077
10 30.00 1200.01 239 248 3.335 10000.000 0.000 0.077
11 33.00 1200.01 191 267 3.335 10000.000 0.000 0.077
12 36.00 1200.01 165 368 3.335 10000.000 0.000 0.077
13 39.00 1200.01 178 428 3.335 10000.000 0.000 0.077
14 42.00 1200.01 168 497 3.335 10000.000 0.000 0.077
15 45.00 1200.01 128 660 3.335 10000.000 0.000 0.077
16 48.00 1200.01 131 678 3.335 10000.000 0.000 0.077
17 51.00 1200.01 123 693 3.335 10000.000 0.000 0.077
18 54.00 1200.01 129 728 3.335 10000.000 0.000 0.077
19 57.00 1200.01 127 713 3.335 10000.000 0.000 0.077
20 60.00 1200.01 136 646 3.335 10000.000 0.000 0.077
21 63.00 1200.01 143 654 3.335 10000.000 0.000 0.077
22 66.00 1200.01 165 681 3.335 10000.000 0.000 0.077
23 69.00 1200.01 198 715 3.335 10000.000 0.000 0.077
24 72.00 1200.01 242 679 3.335 10000.000 0.000 0.077
25 75.00 1200.01 202 746 3.335 10000.000 0.000 0.077
26 78.00 1200.01 241 736 3.335 10000.000 0.000 0.077
27 81.00 1200.01 235 750 3.335 10000.000 0.000 0.077
28 84.00 1200.01 266 693 3.335 10000.000 0.000 0.077
29 87.00 1200.01 223 602 3.335 10000.000 0.000 0.077
30 90.00 1200.01 255 531 3.335 10000.000 0.000 0.077
31 93.00 1200.01 255 439 3.335 10000.000 0.000 0.077
32 96.00 1200.01 251 354 3.335 10000.000 0.000 0.077
33 99.00 1200.01 222 255 3.335 10000.000 0.000 0.077
34 102.00 1200.01 265 203 3.335 10000.000 0.000 0.077
35 105.00 1200.01 259 172 3.335 10000.000 0.000 0.077
36 108.00 1200.01 238 156 3.335 10000.000 0.000 0.077
37 111.00 1200.01 252 126 3.335 10000.000 0.000 0.077
38 114.00 1200.01 272 122 3.335 10000.000 0.000 0.077
39 117.00 1200.01 222 107 3.335 10000.000 0.000 0.077
40 120.00 1200.01 285 139 3.335 10000.000 0.000 0.077
41 123.00 1200.01 248 160 3.335 10000.000 0.000 0.077
42 126.00 1200.01 226 155 3.335 10000.000 0.000 0.077
43 129.00 1200.01 208 235 3.335 10000.000 0.000 0.077
44 132.00 1200.01 221 305 3.335 10000.000 0.000 0.077
45 135.00 1200.01 174 379 3.335 10000.000 0.000 0.077
46 138.00 1200.01 169 455 3.335 10000.000 0.000 0.077
47 141.00 1200.01 164 565 3.335 10000.000 0.000 0.077
48 144.00 1200.01 145 617 3.335 10000.000 0.000 0.077
49 147.00 1200.01 101 717 3.335 10000.000 0.000 0.077
50 150.00 1200.01 135 743 3.335 10000.000 0.000 0.077
51 153.00 1200.01 132 689 3.335 10000.000 0.000 0.077
52 156.00 1200.01 134 672 3.335 10000.000 0.000 0.077
53 159.00 1200.01 140 692 3.335 10000.000 0.000 0.077
54 162.00 1200.01 149 697 3.335 10000.000 0.000 0.077
55 165.00 1200.01 134 681 3.335 10000.000 0.000 0.077
56 168.00 1200.01 185 697 3.335 10000.000 0.000 0.077
57 171.00 1200.01 187 751 3.335 10000.000 0.000 0.077
58 174.00 1200.01 222 702 3.335 10000.000 0.000 0.077
59 177.00 1200.01 212 752 3.335 10000.000 0.000 0.077
60 180.00 1200.01 253 665 3.335 10000.000 0.000 0.077
61 183.00 1200.01 257 646 3.335 10000.000 0.000 0.077
62 186.00 1200.01 256 651 3.335 10000.000 0.000 0.077
63 189.00 1200.01 249 529 3.335 10000.000 0.000 0.077
64 192.00 1200.01 230 439 3.335 10000.000 0.000 0.077
65 195.00 1200.01 240 391 3.335 10000.000 0.000 0.077
66 198.00 1200.01 283 317 3.335 10000.000 0.000 0.077
67 201.00 1200.01 231 229 3.335 10000.000 0.000 0.077
68 204.00 1200.01 231 203 3.335 10000.000 0.000 0.077
69 207.00 1200.01 248 146 3.335 10000.000 0.000 0.077
70 210.00 1200.01 243 133 3.335 10000.000 0.000 0.077
71 213.00 1200.01 244 129 3.335 10000.000 0.000 0.077
72 216.00 1200.01 284 127 3.335 10000.000 0.000 0.077
73 219.00 1200.01 278 128 3.335 10000.000 0.000 0.077
74 222.00 1200.01 253 139 3.335 10000.000 0.000 0.077
75 225.00 1200.01 243 161 3.335 10000.000 0.000 0.077
76 228.00 1200.01 214 202 3.335 10000.000 0.000 0.077
77 231.00 1200.01 198 270 3.335 10000.000 0.000 0.077
78 234.00 1200.01 212 364 3.335 10000.000 0.000 0.077
79 237.00 1200.01 185 484 3.335 10000.000 0.000 0.077
80 240.00 1200.01 170 537 3.335 10000.000 0.000 0.077
81 243.00 1200.01 159 595 3.335 10000.000 0.000 0.077
82 246.00 1200.01 151 637 3.335 10000.000 0.000 0.077
83 249.00 1200.01 138 693 3.335 10000.000 0.000 0.077
84 252.00 1200.01 186 717 3.335 10000.000 0.000 0.077
85 255.00 1200.01 172 715 3.335 10000.000 0.000 0.077
86 258.00 1200.01 196 739 3.335 10000.000 0.000 0.077
87 261.00 1200.01 218 694 3.335 10000.000 0.000 0.077
88 264.00 1200.01 226 681 3.335 10000.000 0.000 0.077
89 267.00 1200.01 230 656 3.335 10000.000 0.000 0.077
90 270.00 1200.01 276 717 3.335 10000.000 0.000 0.077
91 273.00 1200.01 260 700 3.335 10000.000 0.000 0.077
92 276.00 1200.01 243 725 3.335 10000.000 0.000 0.077
93 279.00 1200.01 222 678 3.335 10000.000 0.000 0.077
94 282.00 1200.01 232 741 3.335 10000.000 0.000 0.077
95 285.00 1200.01 221 655 3.335 10000.000 0.000 0.077
96 288.00 1200.01 196 612 3.335 10000.000 0.000 0.077
97 291.00 1200.01 174 514 3.335 10000.000 0.000 0.077
98 294.00 1200.01 186 425 3.335 10000.000 0.000 0.077
99 297.00 1200.01 175 344 3.335 10000.000 0.000 0.077
100 300.00 1200.01 157 269 3.335 10000.000 0.000 0.077
101 303.00 1200.01 195 219 3.335 10000.000 0.000 0.077
102 306.00 1200.01 232 198 3.335 10000.000 0.000 0.077
103 309.00 1200.01 209 127 3.335 10000.000 0.000 0.077
104 312.00 1200.01 221 129 3.335 10000.000 0.000 0.077
105 315.00 1200.01 238 131 3.335 10000.000 0.000 0.077
106 318.00 1200.01 233 101 3.335 10000.000 0.000 0.077
107 321.00 1200.01 261 137 3.335 10000.000 0.000 0.077
108 324.00 1200.01 268 163 3.335 10000.000 0.000 0.077
109 327.00 1200.01 245 220 3.335 10000.000 0.000 0.077
110 330.00 1200.01 226 226 3.335 10000.000 0.000 0.077
111 333.00 1200.01 246 307 3.335 10000.000 0.000 0.077
112 336.00 1200.01 258 421 3.335 10000.000 0.000 0.077
113 339.00 1200.01 229 526 3.335 10000.000 0.000 0.077
114 342.00 1200.01 250 648 3.335 10000.000 0.000 0.077
115 345.00 1200.01 269 644 3.335 10000.000 0.000 0.077
116 348.00 1200.01 257 738 3.335 10000.000 0.000 0.077
117 351.00 1200.01 241 725 3.335 10000.000 0.000 0.077
118 354.00 1200.01 239 720 3.335 10000.000 0.000 0.077
119 357.00 1200.01 239 699 3.335 10000.000 0.000 0.077
120 360.00 1200.01 256 708 3.335 10000.000 0.000 0.077
121 363.00 1200.01 205 737 3.335 10000.000 0.000 0.077
122 366.00 1200.01 194 740 3.335 10000.000 0.000 0.077
123 369.00 1200.01 178 634 3.335 10000.000 0.000 0.077
124 372.00 1200.01 165 718 3.335 10000.000 0.000 0.077
125 375.00 1200.01 149 702 3.335 10000.000 0.000 0.077
126 378.00 1200.01 154 713 3.335 10000.000 0.000 0.077
127 381.00 1200.01 113 684 3.335 10000.000 0.000 0.077
128 384.00 1200.01 117 710 3.335 10000.000 0.000 0.077
129 387.00 1200.01 108 604 3.335 10000.000 0.000 0.077
130 390.00 1200.01 129 551 3.335 10000.000 0.000 0.077
131 393.00 1200.01 136 424 3.335 10000.000 0.000 0.077
132 396.00 1200.01 142 346 3.335 10000.000 0.000 0.077
133 399.00 1200.01 160 300 3.335 10000.000 0.000 0.077
134 402.00 1200.01 170 197 3.335 10000.000 0.000 0.077
135 405.00 1200.01 200 179 3.335 10000.000 0.000 0.077
136 408.00 1200.01 209 177 3.335 10000.000 0.000 0.077
137 411.00 1200.01 252 157 3.335 10000.000 0.000 0.077
138 414.00 1200.01 263 241 3.335 10000.000 0.000 0.077
139 417.00 1200.01 244 256 3.335 10000.000 0.000 0.077
140 420.00 1200.01 271 363 3.335 10000.000 0.000 0.077
141 423.00 1200.01 262 400 3.335 10000.000 0.000 0.077
