# BinNR microsec tot-time (s)  O-Beam AUX Ampl(V) f(Hz) phase(deg) chi(pos)
0 0.00 1200.00 104 365 1.010 10000.000 0.000 -0.374
1 3.00 1200.00 259 681 1.010 10000.000 0.000 -0.374
2 6.00 1200.00 265 716 1.010 10000.000 0.000 -0.374
3 9.00 1200.00 304 661 1.010 10000.000 0.000 -0.374
4 12.00 1200.00 285 722 1.010 10000.000 0.000 -0.374
5 15.00 1200.00 266 642 1.010 10000.000 0.000 -0.374
6 18.00 1200.00 282 609 1.010 10000.000 0.000 -0.374
7 21.00 1200.00 272 635 1.010 10000.000 0.000 -0.374
8 24.00 1200.00 259 621 1.010 10000.000 0.000 -0.374
9 27.00 1200.00 249 605 1.010 10000.000 0.000 -0.374
10 30.00 1200.00 250 598 1.010 10000.000 0.000 -0.374
11 33.00 1200.00 256 620 1.010 10000.000 0.000 -0.374
12 36.00 1200.00 272 657 1.010 10000.000 0.000 -0.374
13 39.00 1200.00 249 669 1.010 10000.000 0.000 -0.374
14 42.00 1200.00 273 721 1.010 10000.000 0.000 -0.374
15 45.00 1200.00 281 668 1.010 10000.000 0.000 -0.374
16 48.00 1200.00 252 716 1.010 10000.000 0.000 -0.374
17 51.00 1200.00 250 685 1.010 10000.000 0.000 -0.374
18 54.00 1200.00 260 733 1.010 10000.000 0.000 -0.374
19 57.00 1200.00 268 723 1.010 10000.000 0.000 -0.374
20 60.00 1200.00 262 776 1.010 10000.000 0.000 -0.374
21 63.00 1200.00 267 720 1.010 10000.000 0.000 -0.374
22 66.00 1200.00 250 729 1.010 10000.000 0.000 -0.374
23 69.00 1200.00 287 768 1.010 10000.000 0.000 -0.374
24 72.00 1200.00 260 774 1.010 10000.000 0.000 -0.374
25 75.00 1200.00 266 658 1.010 10000.000 0.000 -0.374
26 78.00 1200.00 311 737 1.010 10000.000 0.000 -0.374
27 81.00 1200.00 269 695 1.010 10000.000 0.000 -0.374
28 84.00 1200.00 280 708 1.010 10000.000 0.000 -0.374
29 87.00 1200.00 275 713 1.010 10000.000 0.000 -0.374
30 90.00 1200.00 272 687 1.010 10000.000 0.000 -0.374
31 93.00 1200.00 279 623 1.010 10000.000 0.000 -0.374
32 96.00 1200.00 279 666 1.010 10000.000 0.000 -0.374
33 99.00 1200.00 267 551 1.010 10000.000 0.000 -0.374
34 102.00 1200.00 295 636 1.010 10000.000 0.000 -0.374
35 105.00 1200.00 275 604 1.010 10000.000 0.000 -0.374
36 108.00 1200.00 269 554 1.010 10000.000 0.000 -0.374
37 111.00 1200.00 275 523 1.010 10000.000 0.000 -0.374
38 114.00 1200.00 276 571 1.010 10000.000 0.000 -0.374
39 117.00 1200.00 280 529 1.010 10000.000 0.000 -0.374
40 120.00 1200.00 292 544 1.010 10000.000 0.000 -0.374
41 123.00 1200.00 277 628 1.010 10000.000 0.000 -0.374
42 126.00 1200.00 239 606 1.010 10000.000 0.000 -0.374
43 129.00 1200.00 293 613 1.010 10000.000 0.000 -0.374
44 132.00 1200.00 248 597 1.010 10000.000 0.000 -0.374
45 135.00 1200.00 256 657 1.010 10000.000 0.000 -0.374
46 138.00 1200.00 246 653 1.010 10000.000 0.000 -0.374
47 141.00 1200.00 263 681 1.010 10000.000 0.000 -0.374
48 144.00 1200.00 260 707 1.010 10000.000 0.000 -0.374
49 147.00 1200.00 269 697 1.010 10000.000 0.000 -0.374
50 150.00 1200.00 264 685 1.010 10000.000 0.000 -0.374
51 153.00 1200.00 276 779 1.010 10000.000 0.000 -0.374
52 156.00 1200.00 269 711 1.010 10000.000 0.000 -0.374
53 159.00 1200.00 262 723 1.010 10000.000 0.000 -0.374
54 162.00 1200.00 280 769 1.010 10000.000 0.000 -0.374
55 165.00 1200.00 255 771 1.010 10000.000 0.000 -0.374
56 168.00 1200.00 287 763 1.010 10000.000 0.000 -0.374
57 171.00 1200.00 274 764 1.010 10000.000 0.000 -0.374
58 174.00 1200.00 286 802 1.010 10000.000 0.000 -0.374
59 177.00 1200.00 250 725 1.010 10000.000 0.000 -0.374
60 180.00 1200.00 304 742 1.010 10000.000 0.000 -0.374
61 183.00 1200.00 274 715 1.010 10000.000 0.000 -0.374
62 186.00 1200.00 273 735 1.010 10000.000 0.000 -0.374
63 189.00 1200.00 295 654 1.010 10000.000 0.000 -0.374
64 192.00 1200.00 273 668 1.010 10000.000 0.000 -0.374
65 195.00 1200.00 271 609 1.010 10000.000 0.000 -0.374
66 198.00 1200.00 295 631 1.010 10000.000 0.000 -0.374
67 201.00 1200.00 273 593 1.010 10000.000 0.000 -0.374
68 204.00 1200.00 267 563 1.010 10000.000 0.000 -0.374
69 207.00 1200.00 236 560 1.010 10000.000 0.000 -0.374
70 210.00 1200.00 272 581 1.010 10000.000 0.000 -0.374
71 213.00 1200.00 243 566 1.010 10000.000 0.000 -0.374
72 216.00 1200.00 267 562 1.010 10000.000 0.000 -0.374
73 219.00 1200.00 252 567 1.010 10000.000 0.000 -0.374
74 222.00 1200.00 251 623 1.010 10000.000 0.000 -0.374
75 225.00 1200.00 254 576 1.010 10000.000 0.000 -0.374
76 228.00 1200.00 282 600 1.010 10000.000 0.000 -0.374
77 231.00 1200.00 258 597 1.010 10000.000 0.000 -0.374
78 234.00 1200.00 241 667 1.010 10000.000 0.000 -0.374
79 237.00 1200.00 257 628 1.010 10000.000 0.000 -0.374
80 240.00 1200.00 244 694 1.010 10000.000 0.000 -0.374
81 243.00 1200.00 253 713 1.010 10000.000 0.000 -0.374
82 246.00 1200.00 240 698 1.010 10000.000 0.000 -0.374
83 249.00 1200.00 261 723 1.010 10000.000 0.000 -0.374
84 252.00 1200.00 258 691 1.010 10000.000 0.000 -0.374
85 255.00 1200.00 264 698 1.010 10000.000 0.000 -0.374
86 258.00 1200.00 278 751 1.010 10000.000 0.000 -0.374
87 261.00 1200.00 246 712 1.010 10000.000 0.000 -0.374
88 264.00 1200.00 289 779 1.010 10000.000 0.000 -0.374
89 267.00 1200.00 295 770 1.010 10000.000 0.000 -0.374
90 270.00 1200.00 267 754 1.010 10000.000 0.000 -0.374
91 273.00 1200.00 276 708 1.010 10000.000 0.000 -0.374
92 276.00 1200.00 252 679 1.010 10000.000 0.000 -0.374
93 279.00 1200.00 291 722 1.010 10000.000 0.000 -0.374
94 282.00 1200.00 283 680 1.010 10000.000 0.000 -0.374
95 285.00 1200.00 280 704 1.010 10000.000 0.000 -0.374
96 288.00 1200.00 276 715 1.010 10000.000 0.000 -0.374
97 291.00 1200.00 271 636 1.010 10000.000 0.000 -0.374
98 294.00 1200.00 269 665 1.010 10000.000 0.000 -0.374
99 297.00 1200.00 262 609 1.010 10000.000 0.000 -0.374
100 300.00 1200.00 251 589 1.010 10000.000 0.000 -0.374
101 303.00 1200.00 274 569 1.010 10000.000 0.000 -0.374
102 306.00 1200.00 278 589 1.010 10000.000 0.000 -0.374
103 309.00 1200.00 282 568 1.010 10000.000 0.000 -0.374
104 312.00 1200.00 307 546 1.010 10000.000 0.000 -0.374
105 315.00 1200.00 269 589 1.010 10000.000 0.000 -0.374
106 318.00 1200.00 260 595 1.010 10000.000 0.000 -0.374
107 321.00 1200.00 273 592 1.010 10000.000 0.000 -0.374
108 324.00 1200.00 264 558 1.010 10000.000 0.000 -0.374
109 327.00 1200.00 268 605 1.010 10000.000 0.000 -0.374
110 330.00 1200.00 264 642 1.010 10000.000 0.000 -0.374
111 333.00 1200.00 244 606 1.010 10000.000 0.000 -0.374
112 336.00 1200.00 296 677 1.010 10000.000 0.000 -0.374
113 339.00 1200.00 276 692 1.010 10000.000 0.000 -0.374
114 342.00 1200.00 245 675 1.010 10000.000 0.000 -0.374
115 345.00 1200.00 283 707 1.010 10000.000 0.000 -0.374
116 348.00 1200.00 269 730 1.010 10000.000 0.000 -0.374
117 351.00 1200.00 292 721 1.010 10000.000 0.000 -0.374
118 354.00 1200.00 309 717 1.010 10000.000 0.000 -0.374
119 357.00 1200.00 291 737 1.010 10000.000 0.000 -0.374
120 360.00 1200.00 263 748 1.010 10000.000 0.000 -0.374
121 363.00 1200.00 237 760 1.010 10000.000 0.000 -0.374
122 366.00 1200.00 259 790 1.010 10000.000 0.000 -0.374
123 369.00 1200.00 268 704 1.010 10000.000 0.000 -0.374
124 372.00 1200.00 297 767 1.010 10000.000 0.000 -0.374
125 375.00 1200.00 272 699 1.010 10000.000 0.000 -0.374
126 378.00 1200.00 260 727 1.010 10000.000 0.000 -0.374
127 381.00 1200.00 266 746 1.010 10000.000 0.000 -0.374
128 384.00 1200.00 274 750 1.010 10000.000 0.000 -0.374
129 387.00 1200.00 250 703 1.010 10000.000 0.000 -0.374
130 390.00 1200.00 278 709 1.010 10000.000 0.000 -0.374
131 393.00 1200.00 257 667 1.010 10000.000 0.000 -0.374
132 396.00 1200.00 266 610 1.010 10000.000 0.000 -0.374
133 399.00 1200.00 256 597 1.010 10000.000 0.000 -0.374
134 402.00 1200.00 262 629 1.010 10000.000 0.000 -0.374
135 405.00 1200.00 265 599 1.010 10000.000 0.000 -0.374
136 408.00 1200.00 309 602 1.010 10000.000 0.000 -0.374
137 411.00 1200.00 272 568 1.010 10000.000 0.000 -0.374
138 414.00 1200.00 254 597 1.010 10000.000 0.000 -0.374
139 417.00 1200.00 257 587 1.010 10000.000 0.000 -0.374
140 420.00 1200.00 299 596 1.010 10000.000 0.000 -0.374
141 423.00 1200.00 275 698 1.010 10000.000 0.000 -0.374
