# BinNR microsec tot-time (s)  O-Beam H-beam AUX Ampl(V) f(Hz) phase(deg) chi(pos)
0 0.00 900.00 97 645 0 5.155 2000.000 0.000 1.351
1 25.00 900.00 91 561 3 5.155 2000.000 0.000 1.351
2 50.00 900.00 89 472 5 5.155 2000.000 0.000 1.351
3 75.00 900.00 98 391 2 5.155 2000.000 0.000 1.351
4 100.00 900.00 127 407 2 5.155 2000.000 0.000 1.351
5 125.00 900.00 190 457 1 5.155 2000.000 0.000 1.351
6 150.00 900.00 292 515 2 5.155 2000.000 0.000 1.351
7 175.00 900.00 330 545 6 5.155 2000.000 0.000 1.351
8 200.00 900.00 388 563 2 5.155 2000.000 0.000 1.351
9 225.00 900.00 352 499 3 5.155 2000.000 0.000 1.351
10 250.00 900.00 251 417 0 5.155 2000.000 0.000 1.351
11 275.00 900.00 299 368 4 5.155 2000.000 0.000 1.351
12 300.00 900.00 233 379 4 5.155 2000.000 0.000 1.351
13 325.00 900.00 255 533 1 5.155 2000.000 0.000 1.351
14 350.00 900.00 307 674 2 5.155 2000.000 0.000 1.351
15 375.00 900.00 399 670 7 5.155 2000.000 0.000 1.351
16 400.00 900.00 379 714 0 5.155 2000.000 0.000 1.351
17 425.00 900.00 325 704 3 5.155 2000.000 0.000 1.351
18 450.00 900.00 226 724 4 5.155 2000.000 0.000 1.351
19 475.00 900.00 142 694 3 5.155 2000.000 0.000 1.351
20 500.00 900.00 108 667 2 5.155 2000.000 0.000 1.351
21 525.00 900.00 101 562 1 5.155 2000.000 0.000 1.351
22 550.00 900.00 90 473 0 5.155 2000.000 0.000 1.351
23 575.00 900.00 94 367 3 5.155 2000.000 0.000 1.351
24 600.00 900.00 108 399 1 5.155 2000.000 0.000 1.351
25 625.00 900.00 181 494 1 5.155 2000.000 0.000 1.351
26 650.00 900.00 258 492 0 5.155 2000.000 0.000 1.351
27 675.00 900.00 387 530 4 5.155 2000.000 0.000 1.351
28 700.00 900.00 413 514 2 5.155 2000.000 0.000 1.351
29 725.00 900.00 375 506 3 5.155 2000.000 0.000 1.351
30 750.00 900.00 288 435 4 5.155 2000.000 0.000 1.351
31 775.00 900.00 254 451 2 5.155 2000.000 0.000 1.351
32 800.00 900.00 237 412 1 5.155 2000.000 0.000 1.351
33 825.00 900.00 275 555 0 5.155 2000.000 0.000 1.351
34 850.00 900.00 312 603 1 5.155 2000.000 0.000 1.351
35 875.00 900.00 389 702 2 5.155 2000.000 0.000 1.351
36 900.00 900.00 397 713 2 5.155 2000.000 0.000 1.351
37 925.00 900.00 351 689 2 5.155 2000.000 0.000 1.351
38 950.00 900.00 226 729 2 5.155 2000.000 0.000 1.351
39 975.00 900.00 134 686 7 5.155 2000.000 0.000 1.351
