# BinNR microsec tot-time (s)  O-Beam H-beam AUX Ampl(V) f(Hz) phase(deg) chi(pos)
0 0.00 900.00 233 470 4 5.155 2000.000 0.000 -1.219
1 25.00 900.00 225 366 2 5.155 2000.000 0.000 -1.219
2 50.00 900.00 203 385 3 5.155 2000.000 0.000 -1.219
3 75.00 900.00 234 499 1 5.155 2000.000 0.000 -1.219
4 100.00 900.00 300 610 3 5.155 2000.000 0.000 -1.219
5 125.00 900.00 363 661 2 5.155 2000.000 0.000 -1.219
6 150.00 900.00 361 670 3 5.155 2000.000 0.000 -1.219
7 175.00 900.00 327 716 4 5.155 2000.000 0.000 -1.219
8 200.00 900.00 260 677 3 5.155 2000.000 0.000 -1.219
9 225.00 900.00 169 656 1 5.155 2000.000 0.000 -1.219
10 250.00 900.00 111 578 2 5.155 2000.000 0.000 -1.219
11 275.00 900.00 108 525 0 5.155 2000.000 0.000 -1.219
12 300.00 900.00 83 428 4 5.155 2000.000 0.000 -1.219
13 325.00 900.00 93 398 0 5.155 2000.000 0.000 -1.219
14 350.00 900.00 152 456 3 5.155 2000.000 0.000 -1.219
15 375.00 900.00 196 526 2 5.155 2000.000 0.000 -1.219
16 400.00 900.00 333 557 4 5.155 2000.000 0.000 -1.219
17 425.00 900.00 376 580 5 5.155 2000.000 0.000 -1.219
18 450.00 900.00 396 607 3 5.155 2000.000 0.000 -1.219
19 475.00 900.00 337 520 1 5.155 2000.000 0.000 -1.219
20 500.00 900.00 257 436 2 5.155 2000.000 0.000 -1.219
21 525.00 900.00 213 384 5 5.155 2000.000 0.000 -1.219
22 550.00 900.00 230 438 1 5.155 2000.000 0.000 -1.219
23 575.00 900.00 216 474 2 5.155 2000.000 0.000 -1.219
24 600.00 900.00 287 607 1 5.155 2000.000 0.000 -1.219
25 625.00 900.00 384 687 1 5.155 2000.000 0.000 -1.219
26 650.00 900.00 421 679 1 5.155 2000.000 0.000 -1.219
27 675.00 900.00 378 713 4 5.155 2000.000 0.000 -1.219
28 700.00 900.00 253 702 1 5.155 2000.000 0.000 -1.219
29 725.00 900.00 177 681 2 5.155 2000.000 0.000 -1.219
30 750.00 900.00 123 652 3 5.155 2000.000 0.000 -1.219
31 775.00 900.00 104 537 4 5.155 2000.000 0.000 -1.219
32 800.00 900.00 90 478 1 5.155 2000.000 0.000 -1.219
33 825.00 900.00 87 393 2 5.155 2000.000 0.000 -1.219
34 850.00 900.00 181 415 2 5.155 2000.000 0.000 -1.219
35 875.00 900.00 212 551 1 5.155 2000.000 0.000 -1.219
36 900.00 900.00 311 529 2 5.155 2000.000 0.000 -1.219
37 925.00 900.00 395 559 2 5.155 2000.000 0.000 -1.219
38 950.00 900.00 415 602 2 5.155 2000.000 0.000 -1.219
39 975.00 900.00 333 552 2 5.155 2000.000 0.000 -1.219
