# BinNR microsec tot-time (s)  O-Beam H-beam AUX Ampl1(V) f1(Hz) phase1(deg) Ampl1(V) f1(Hz) phase1(deg) chi(pos)
0 0.00 1200.00 41 182 104 0.425 2000.000 0.000 0.425 3000.000 0.000 0.791
1 16.67 1200.00 57 199 118 0.425 2000.000 0.000 0.425 3000.000 0.000 0.791
2 33.33 1200.00 46 188 125 0.425 2000.000 0.000 0.425 3000.000 0.000 0.791
3 50.00 1200.00 47 185 129 0.425 2000.000 0.000 0.425 3000.000 0.000 0.791
4 66.67 1200.00 43 218 128 0.425 2000.000 0.000 0.425 3000.000 0.000 0.791
5 83.33 1200.00 42 229 118 0.425 2000.000 0.000 0.425 3000.000 0.000 0.791
6 100.00 1200.00 42 215 122 0.425 2000.000 0.000 0.425 3000.000 0.000 0.791
7 116.67 1200.00 45 240 131 0.425 2000.000 0.000 0.425 3000.000 0.000 0.791
8 133.33 1200.00 41 203 103 0.425 2000.000 0.000 0.425 3000.000 0.000 0.791
9 150.00 1200.00 31 186 113 0.425 2000.000 0.000 0.425 3000.000 0.000 0.791
10 166.67 1200.00 42 208 131 0.425 2000.000 0.000 0.425 3000.000 0.000 0.791
11 183.33 1200.00 38 189 129 0.425 2000.000 0.000 0.425 3000.000 0.000 0.791
12 200.00 1200.00 37 186 126 0.425 2000.000 0.000 0.425 3000.000 0.000 0.791
13 216.67 1200.00 34 194 130 0.425 2000.000 0.000 0.425 3000.000 0.000 0.791
14 233.33 1200.00 39 211 88 0.425 2000.000 0.000 0.425 3000.000 0.000 0.791
15 250.00 1200.00 39 202 124 0.425 2000.000 0.000 0.425 3000.000 0.000 0.791
16 266.67 1200.00 39 201 113 0.425 2000.000 0.000 0.425 3000.000 0.000 0.791
17 283.33 1200.00 34 190 127 0.425 2000.000 0.000 0.425 3000.000 0.000 0.791
18 300.00 1200.00 59 181 128 0.425 2000.000 0.000 0.425 3000.000 0.000 0.791
19 316.67 1200.00 50 176 131 0.425 2000.000 0.000 0.425 3000.000 0.000 0.791
20 333.33 1200.00 43 190 121 0.425 2000.000 0.000 0.425 3000.000 0.000 0.791
21 350.00 1200.00 41 200 117 0.425 2000.000 0.000 0.425 3000.000 0.000 0.791
22 366.67 1200.00 51 157 127 0.425 2000.000 0.000 0.425 3000.000 0.000 0.791
23 383.33 1200.00 57 197 131 0.425 2000.000 0.000 0.425 3000.000 0.000 0.791
24 400.00 1200.00 38 226 114 0.425 2000.000 0.000 0.425 3000.000 0.000 0.791
25 416.67 1200.00 53 202 115 0.425 2000.000 0.000 0.425 3000.000 0.000 0.791
26 433.33 1200.00 53 204 118 0.425 2000.000 0.000 0.425 3000.000 0.000 0.791
27 450.00 1200.00 33 182 112 0.425 2000.000 0.000 0.425 3000.000 0.000 0.791
28 466.67 1200.00 43 177 118 0.425 2000.000 0.000 0.425 3000.000 0.000 0.791
29 483.33 1200.00 45 187 119 0.425 2000.000 0.000 0.425 3000.000 0.000 0.791
30 500.00 1200.00 50 174 106 0.425 2000.000 0.000 0.425 3000.000 0.000 0.791
31 516.67 1200.00 38 207 103 0.425 2000.000 0.000 0.425 3000.000 0.000 0.791
32 533.33 1200.00 46 194 125 0.425 2000.000 0.000 0.425 3000.000 0.000 0.791
33 550.00 1200.00 53 218 118 0.425 2000.000 0.000 0.425 3000.000 0.000 0.791
34 566.67 1200.00 52 209 113 0.425 2000.000 0.000 0.425 3000.000 0.000 0.791
35 583.33 1200.00 48 193 122 0.425 2000.000 0.000 0.425 3000.000 0.000 0.791
36 600.00 1200.00 40 188 118 0.425 2000.000 0.000 0.425 3000.000 0.000 0.791
37 616.67 1200.00 45 198 131 0.425 2000.000 0.000 0.425 3000.000 0.000 0.791
38 633.33 1200.00 43 199 117 0.425 2000.000 0.000 0.425 3000.000 0.000 0.791
39 650.00 1200.00 55 215 127 0.425 2000.000 0.000 0.425 3000.000 0.000 0.791
40 666.67 1200.00 35 205 118 0.425 2000.000 0.000 0.425 3000.000 0.000 0.791
41 683.33 1200.00 40 190 134 0.425 2000.000 0.000 0.425 3000.000 0.000 0.791
42 700.00 1200.00 51 231 137 0.425 2000.000 0.000 0.425 3000.000 0.000 0.791
43 716.67 1200.00 49 187 118 0.425 2000.000 0.000 0.425 3000.000 0.000 0.791
44 733.33 1200.00 52 200 130 0.425 2000.000 0.000 0.425 3000.000 0.000 0.791
45 750.00 1200.00 44 216 114 0.425 2000.000 0.000 0.425 3000.000 0.000 0.791
46 766.67 1200.00 51 183 130 0.425 2000.000 0.000 0.425 3000.000 0.000 0.791
47 783.33 1200.00 41 203 130 0.425 2000.000 0.000 0.425 3000.000 0.000 0.791
48 800.00 1200.00 47 206 108 0.425 2000.000 0.000 0.425 3000.000 0.000 0.791
49 816.67 1200.00 38 193 134 0.425 2000.000 0.000 0.425 3000.000 0.000 0.791
50 833.34 1200.00 48 208 113 0.425 2000.000 0.000 0.425 3000.000 0.000 0.791
51 850.00 1200.00 42 194 105 0.425 2000.000 0.000 0.425 3000.000 0.000 0.791
52 866.67 1200.00 37 179 113 0.425 2000.000 0.000 0.425 3000.000 0.000 0.791
53 883.34 1200.00 35 167 113 0.425 2000.000 0.000 0.425 3000.000 0.000 0.791
54 900.00 1200.00 51 181 111 0.425 2000.000 0.000 0.425 3000.000 0.000 0.791
55 916.67 1200.00 57 205 126 0.425 2000.000 0.000 0.425 3000.000 0.000 0.791
56 933.34 1200.00 39 181 109 0.425 2000.000 0.000 0.425 3000.000 0.000 0.791
57 950.00 1200.00 38 200 120 0.425 2000.000 0.000 0.425 3000.000 0.000 0.791
58 966.67 1200.00 49 187 108 0.425 2000.000 0.000 0.425 3000.000 0.000 0.791
59 983.34 1200.00 43 214 135 0.425 2000.000 0.000 0.425 3000.000 0.000 0.791
60 1000.00 1200.00 38 185 123 0.425 2000.000 0.000 0.425 3000.000 0.000 0.791
61 1016.67 1200.00 44 186 126 0.425 2000.000 0.000 0.425 3000.000 0.000 0.791
62 1033.34 1200.00 47 197 140 0.425 2000.000 0.000 0.425 3000.000 0.000 0.791
63 1050.00 1200.00 32 201 123 0.425 2000.000 0.000 0.425 3000.000 0.000 0.791
64 1066.67 1200.00 45 201 112 0.425 2000.000 0.000 0.425 3000.000 0.000 0.791
65 1083.34 1200.00 37 202 125 0.425 2000.000 0.000 0.425 3000.000 0.000 0.791
66 1100.00 1200.00 49 194 122 0.425 2000.000 0.000 0.425 3000.000 0.000 0.791
67 1116.67 1200.00 46 201 113 0.425 2000.000 0.000 0.425 3000.000 0.000 0.791
68 1133.34 1200.00 48 201 126 0.425 2000.000 0.000 0.425 3000.000 0.000 0.791
69 1150.00 1200.00 57 193 127 0.425 2000.000 0.000 0.425 3000.000 0.000 0.791
70 1166.67 1200.00 27 168 97 0.425 2000.000 0.000 0.425 3000.000 0.000 0.791
71 1183.34 1200.00 47 193 115 0.425 2000.000 0.000 0.425 3000.000 0.000 0.791
72 1200.00 1200.00 39 206 120 0.425 2000.000 0.000 0.425 3000.000 0.000 0.791
73 1216.67 1200.00 37 187 112 0.425 2000.000 0.000 0.425 3000.000 0.000 0.791
74 1233.34 1200.00 35 207 113 0.425 2000.000 0.000 0.425 3000.000 0.000 0.791
75 1250.00 1200.00 42 205 119 0.425 2000.000 0.000 0.425 3000.000 0.000 0.791
76 1266.67 1200.00 44 225 118 0.425 2000.000 0.000 0.425 3000.000 0.000 0.791
77 1283.34 1200.00 54 196 134 0.425 2000.000 0.000 0.425 3000.000 0.000 0.791
78 1300.00 1200.00 51 196 104 0.425 2000.000 0.000 0.425 3000.000 0.000 0.791
79 1316.67 1200.00 59 195 127 0.425 2000.000 0.000 0.425 3000.000 0.000 0.791
80 1333.34 1200.00 49 195 121 0.425 2000.000 0.000 0.425 3000.000 0.000 0.791
81 1350.00 1200.00 52 174 112 0.425 2000.000 0.000 0.425 3000.000 0.000 0.791
82 1366.67 1200.00 49 192 136 0.425 2000.000 0.000 0.425 3000.000 0.000 0.791
83 1383.34 1200.00 53 182 105 0.425 2000.000 0.000 0.425 3000.000 0.000 0.791
84 1400.00 1200.00 44 202 113 0.425 2000.000 0.000 0.425 3000.000 0.000 0.791
85 1416.67 1200.00 36 197 134 0.425 2000.000 0.000 0.425 3000.000 0.000 0.791
86 1433.34 1200.00 32 179 127 0.425 2000.000 0.000 0.425 3000.000 0.000 0.791
87 1450.00 1200.00 31 185 109 0.425 2000.000 0.000 0.425 3000.000 0.000 0.791
88 1466.67 1200.00 57 200 124 0.425 2000.000 0.000 0.425 3000.000 0.000 0.791
89 1483.34 1200.00 38 199 120 0.425 2000.000 0.000 0.425 3000.000 0.000 0.791
90 1500.00 1200.00 47 202 113 0.425 2000.000 0.000 0.425 3000.000 0.000 0.791
91 1516.67 1200.00 50 190 131 0.425 2000.000 0.000 0.425 3000.000 0.000 0.791
92 1533.34 1200.00 35 198 117 0.425 2000.000 0.000 0.425 3000.000 0.000 0.791
93 1550.00 1200.00 39 178 104 0.425 2000.000 0.000 0.425 3000.000 0.000 0.791
94 1566.67 1200.00 41 212 119 0.425 2000.000 0.000 0.425 3000.000 0.000 0.791
95 1583.34 1200.00 30 200 104 0.425 2000.000 0.000 0.425 3000.000 0.000 0.791
96 1600.00 1200.00 38 202 139 0.425 2000.000 0.000 0.425 3000.000 0.000 0.791
97 1616.67 1200.00 55 215 114 0.425 2000.000 0.000 0.425 3000.000 0.000 0.791
98 1633.34 1200.00 52 185 121 0.425 2000.000 0.000 0.425 3000.000 0.000 0.791
99 1650.00 1200.00 44 186 112 0.425 2000.000 0.000 0.425 3000.000 0.000 0.791
100 1666.67 1200.00 34 211 125 0.425 2000.000 0.000 0.425 3000.000 0.000 0.791
101 1683.34 1200.00 43 200 109 0.425 2000.000 0.000 0.425 3000.000 0.000 0.791
102 1700.00 1200.00 34 210 118 0.425 2000.000 0.000 0.425 3000.000 0.000 0.791
103 1716.67 1200.00 49 227 124 0.425 2000.000 0.000 0.425 3000.000 0.000 0.791
104 1733.34 1200.00 39 196 115 0.425 2000.000 0.000 0.425 3000.000 0.000 0.791
105 1750.00 1200.00 40 188 128 0.425 2000.000 0.000 0.425 3000.000 0.000 0.791
106 1766.67 1200.00 39 213 142 0.425 2000.000 0.000 0.425 3000.000 0.000 0.791
107 1783.34 1200.00 51 174 115 0.425 2000.000 0.000 0.425 3000.000 0.000 0.791
108 1800.00 1200.00 50 212 127 0.425 2000.000 0.000 0.425 3000.000 0.000 0.791
109 1816.67 1200.00 57 199 132 0.425 2000.000 0.000 0.425 3000.000 0.000 0.791
110 1833.34 1200.00 47 187 113 0.425 2000.000 0.000 0.425 3000.000 0.000 0.791
111 1850.00 1200.00 48 201 125 0.425 2000.000 0.000 0.425 3000.000 0.000 0.791
112 1866.67 1200.00 47 207 119 0.425 2000.000 0.000 0.425 3000.000 0.000 0.791
113 1883.34 1200.00 44 203 119 0.425 2000.000 0.000 0.425 3000.000 0.000 0.791
114 1900.00 1200.00 52 177 108 0.425 2000.000 0.000 0.425 3000.000 0.000 0.791
115 1916.67 1200.00 38 177 124 0.425 2000.000 0.000 0.425 3000.000 0.000 0.791
116 1933.34 1200.00 39 197 130 0.425 2000.000 0.000 0.425 3000.000 0.000 0.791
117 1950.00 1200.00 38 197 130 0.425 2000.000 0.000 0.425 3000.000 0.000 0.791
118 1966.67 1200.00 43 213 113 0.425 2000.000 0.000 0.425 3000.000 0.000 0.791
119 1983.34 1200.00 42 163 108 0.425 2000.000 0.000 0.425 3000.000 0.000 0.791
