# BinNR microsec tot-time (s)  O-Beam H-beam AUX Ampl1(V) f1(Hz) phase1(deg) Ampl1(V) f1(Hz) phase1(deg) chi(pos)
0 0.00 1200.00 24 272 67 0.425 2000.000 0.000 0.425 3000.000 0.000 1.351
1 16.67 1200.00 23 308 54 0.425 2000.000 0.000 0.425 3000.000 0.000 1.351
2 33.33 1200.00 26 295 54 0.425 2000.000 0.000 0.425 3000.000 0.000 1.351
3 50.00 1200.00 18 309 54 0.425 2000.000 0.000 0.425 3000.000 0.000 1.351
4 66.67 1200.00 24 314 55 0.425 2000.000 0.000 0.425 3000.000 0.000 1.351
5 83.33 1200.00 20 296 56 0.425 2000.000 0.000 0.425 3000.000 0.000 1.351
6 100.00 1200.00 19 312 55 0.425 2000.000 0.000 0.425 3000.000 0.000 1.351
7 116.67 1200.00 18 348 44 0.425 2000.000 0.000 0.425 3000.000 0.000 1.351
8 133.33 1200.00 19 306 51 0.425 2000.000 0.000 0.425 3000.000 0.000 1.351
9 150.00 1200.00 14 340 47 0.425 2000.000 0.000 0.425 3000.000 0.000 1.351
10 166.67 1200.00 15 298 59 0.425 2000.000 0.000 0.425 3000.000 0.000 1.351
11 183.33 1200.00 12 277 65 0.425 2000.000 0.000 0.425 3000.000 0.000 1.351
12 200.00 1200.00 16 316 49 0.425 2000.000 0.000 0.425 3000.000 0.000 1.351
13 216.67 1200.00 14 291 55 0.425 2000.000 0.000 0.425 3000.000 0.000 1.351
14 233.33 1200.00 21 327 57 0.425 2000.000 0.000 0.425 3000.000 0.000 1.351
15 250.00 1200.00 14 304 54 0.425 2000.000 0.000 0.425 3000.000 0.000 1.351
16 266.67 1200.00 23 313 53 0.425 2000.000 0.000 0.425 3000.000 0.000 1.351
17 283.33 1200.00 19 308 51 0.425 2000.000 0.000 0.425 3000.000 0.000 1.351
18 300.00 1200.00 30 299 55 0.425 2000.000 0.000 0.425 3000.000 0.000 1.351
19 316.67 1200.00 25 297 57 0.425 2000.000 0.000 0.425 3000.000 0.000 1.351
20 333.33 1200.00 21 295 59 0.425 2000.000 0.000 0.425 3000.000 0.000 1.351
21 350.00 1200.00 23 317 64 0.425 2000.000 0.000 0.425 3000.000 0.000 1.351
22 366.67 1200.00 22 323 50 0.425 2000.000 0.000 0.425 3000.000 0.000 1.351
23 383.33 1200.00 30 321 42 0.425 2000.000 0.000 0.425 3000.000 0.000 1.351
24 400.00 1200.00 30 323 60 0.425 2000.000 0.000 0.425 3000.000 0.000 1.351
25 416.67 1200.00 26 291 52 0.425 2000.000 0.000 0.425 3000.000 0.000 1.351
26 433.33 1200.00 26 293 45 0.425 2000.000 0.000 0.425 3000.000 0.000 1.351
27 450.00 1200.00 25 310 27 0.425 2000.000 0.000 0.425 3000.000 0.000 1.351
28 466.67 1200.00 30 278 54 0.425 2000.000 0.000 0.425 3000.000 0.000 1.351
29 483.33 1200.00 25 278 30 0.425 2000.000 0.000 0.425 3000.000 0.000 1.351
30 500.00 1200.00 25 319 33 0.425 2000.000 0.000 0.425 3000.000 0.000 1.351
31 516.67 1200.00 15 297 40 0.425 2000.000 0.000 0.425 3000.000 0.000 1.351
32 533.33 1200.00 19 304 37 0.425 2000.000 0.000 0.425 3000.000 0.000 1.351
33 550.00 1200.00 16 280 32 0.425 2000.000 0.000 0.425 3000.000 0.000 1.351
34 566.67 1200.00 15 286 40 0.425 2000.000 0.000 0.425 3000.000 0.000 1.351
35 583.33 1200.00 16 293 54 0.425 2000.000 0.000 0.425 3000.000 0.000 1.351
36 600.00 1200.00 23 319 60 0.425 2000.000 0.000 0.425 3000.000 0.000 1.351
37 616.67 1200.00 17 310 78 0.425 2000.000 0.000 0.425 3000.000 0.000 1.351
38 633.33 1200.00 21 337 72 0.425 2000.000 0.000 0.425 3000.000 0.000 1.351
39 650.00 1200.00 16 369 61 0.425 2000.000 0.000 0.425 3000.000 0.000 1.351
40 666.67 1200.00 18 323 60 0.425 2000.000 0.000 0.425 3000.000 0.000 1.351
41 683.33 1200.00 12 312 73 0.425 2000.000 0.000 0.425 3000.000 0.000 1.351
42 700.00 1200.00 17 351 64 0.425 2000.000 0.000 0.425 3000.000 0.000 1.351
43 716.67 1200.00 23 303 62 0.425 2000.000 0.000 0.425 3000.000 0.000 1.351
44 733.33 1200.00 25 312 64 0.425 2000.000 0.000 0.425 3000.000 0.000 1.351
45 750.00 1200.00 20 334 55 0.425 2000.000 0.000 0.425 3000.000 0.000 1.351
46 766.67 1200.00 20 277 52 0.425 2000.000 0.000 0.425 3000.000 0.000 1.351
47 783.33 1200.00 22 350 48 0.425 2000.000 0.000 0.425 3000.000 0.000 1.351
48 800.00 1200.00 16 285 54 0.425 2000.000 0.000 0.425 3000.000 0.000 1.351
49 816.67 1200.00 34 306 43 0.425 2000.000 0.000 0.425 3000.000 0.000 1.351
50 833.34 1200.00 16 332 41 0.425 2000.000 0.000 0.425 3000.000 0.000 1.351
51 850.00 1200.00 24 289 35 0.425 2000.000 0.000 0.425 3000.000 0.000 1.351
52 866.67 1200.00 27 284 37 0.425 2000.000 0.000 0.425 3000.000 0.000 1.351
53 883.34 1200.00 19 270 39 0.425 2000.000 0.000 0.425 3000.000 0.000 1.351
54 900.00 1200.00 24 285 37 0.425 2000.000 0.000 0.425 3000.000 0.000 1.351
55 916.67 1200.00 11 271 43 0.425 2000.000 0.000 0.425 3000.000 0.000 1.351
56 933.34 1200.00 23 297 45 0.425 2000.000 0.000 0.425 3000.000 0.000 1.351
57 950.00 1200.00 18 290 52 0.425 2000.000 0.000 0.425 3000.000 0.000 1.351
58 966.67 1200.00 26 285 49 0.425 2000.000 0.000 0.425 3000.000 0.000 1.351
59 983.34 1200.00 30 254 65 0.425 2000.000 0.000 0.425 3000.000 0.000 1.351
60 1000.00 1200.00 24 310 53 0.425 2000.000 0.000 0.425 3000.000 0.000 1.351
61 1016.67 1200.00 16 333 63 0.425 2000.000 0.000 0.425 3000.000 0.000 1.351
62 1033.34 1200.00 22 335 47 0.425 2000.000 0.000 0.425 3000.000 0.000 1.351
63 1050.00 1200.00 34 297 61 0.425 2000.000 0.000 0.425 3000.000 0.000 1.351
64 1066.67 1200.00 24 301 69 0.425 2000.000 0.000 0.425 3000.000 0.000 1.351
65 1083.34 1200.00 20 332 47 0.425 2000.000 0.000 0.425 3000.000 0.000 1.351
66 1100.00 1200.00 18 336 56 0.425 2000.000 0.000 0.425 3000.000 0.000 1.351
67 1116.67 1200.00 32 322 45 0.425 2000.000 0.000 0.425 3000.000 0.000 1.351
68 1133.34 1200.00 13 301 50 0.425 2000.000 0.000 0.425 3000.000 0.000 1.351
69 1150.00 1200.00 23 327 45 0.425 2000.000 0.000 0.425 3000.000 0.000 1.351
70 1166.67 1200.00 22 305 60 0.425 2000.000 0.000 0.425 3000.000 0.000 1.351
71 1183.34 1200.00 12 332 57 0.425 2000.000 0.000 0.425 3000.000 0.000 1.351
72 1200.00 1200.00 25 313 50 0.425 2000.000 0.000 0.425 3000.000 0.000 1.351
73 1216.67 1200.00 12 317 52 0.425 2000.000 0.000 0.425 3000.000 0.000 1.351
74 1233.34 1200.00 12 302 60 0.425 2000.000 0.000 0.425 3000.000 0.000 1.351
75 1250.00 1200.00 14 336 62 0.425 2000.000 0.000 0.425 3000.000 0.000 1.351
76 1266.67 1200.00 24 295 56 0.425 2000.000 0.000 0.425 3000.000 0.000 1.351
77 1283.34 1200.00 21 279 55 0.425 2000.000 0.000 0.425 3000.000 0.000 1.351
78 1300.00 1200.00 14 281 59 0.425 2000.000 0.000 0.425 3000.000 0.000 1.351
79 1316.67 1200.00 18 282 64 0.425 2000.000 0.000 0.425 3000.000 0.000 1.351
80 1333.34 1200.00 29 283 70 0.425 2000.000 0.000 0.425 3000.000 0.000 1.351
81 1350.00 1200.00 20 285 61 0.425 2000.000 0.000 0.425 3000.000 0.000 1.351
82 1366.67 1200.00 18 316 55 0.425 2000.000 0.000 0.425 3000.000 0.000 1.351
83 1383.34 1200.00 29 279 52 0.425 2000.000 0.000 0.425 3000.000 0.000 1.351
84 1400.00 1200.00 26 325 57 0.425 2000.000 0.000 0.425 3000.000 0.000 1.351
85 1416.67 1200.00 28 304 60 0.425 2000.000 0.000 0.425 3000.000 0.000 1.351
86 1433.34 1200.00 20 307 54 0.425 2000.000 0.000 0.425 3000.000 0.000 1.351
87 1450.00 1200.00 17 290 44 0.425 2000.000 0.000 0.425 3000.000 0.000 1.351
88 1466.67 1200.00 28 317 38 0.425 2000.000 0.000 0.425 3000.000 0.000 1.351
89 1483.34 1200.00 20 298 35 0.425 2000.000 0.000 0.425 3000.000 0.000 1.351
90 1500.00 1200.00 21 315 43 0.425 2000.000 0.000 0.425 3000.000 0.000 1.351
91 1516.67 1200.00 18 274 35 0.425 2000.000 0.000 0.425 3000.000 0.000 1.351
92 1533.34 1200.00 19 297 33 0.425 2000.000 0.000 0.425 3000.000 0.000 1.351
93 1550.00 1200.00 9 292 55 0.425 2000.000 0.000 0.425 3000.000 0.000 1.351
94 1566.67 1200.00 19 316 45 0.425 2000.000 0.000 0.425 3000.000 0.000 1.351
95 1583.34 1200.00 16 272 47 0.425 2000.000 0.000 0.425 3000.000 0.000 1.351
96 1600.00 1200.00 19 318 44 0.425 2000.000 0.000 0.425 3000.000 0.000 1.351
97 1616.67 1200.00 21 299 48 0.425 2000.000 0.000 0.425 3000.000 0.000 1.351
98 1633.34 1200.00 13 301 69 0.425 2000.000 0.000 0.425 3000.000 0.000 1.351
99 1650.00 1200.00 15 322 60 0.425 2000.000 0.000 0.425 3000.000 0.000 1.351
100 1666.67 1200.00 28 314 56 0.425 2000.000 0.000 0.425 3000.000 0.000 1.351
101 1683.34 1200.00 22 309 67 0.425 2000.000 0.000 0.425 3000.000 0.000 1.351
102 1700.00 1200.00 19 320 69 0.425 2000.000 0.000 0.425 3000.000 0.000 1.351
103 1716.67 1200.00 18 305 85 0.425 2000.000 0.000 0.425 3000.000 0.000 1.351
104 1733.34 1200.00 14 326 47 0.425 2000.000 0.000 0.425 3000.000 0.000 1.351
105 1750.00 1200.00 18 311 64 0.425 2000.000 0.000 0.425 3000.000 0.000 1.351
106 1766.67 1200.00 29 284 48 0.425 2000.000 0.000 0.425 3000.000 0.000 1.351
107 1783.34 1200.00 21 308 44 0.425 2000.000 0.000 0.425 3000.000 0.000 1.351
108 1800.00 1200.00 14 290 44 0.425 2000.000 0.000 0.425 3000.000 0.000 1.351
109 1816.67 1200.00 21 295 38 0.425 2000.000 0.000 0.425 3000.000 0.000 1.351
110 1833.34 1200.00 26 290 38 0.425 2000.000 0.000 0.425 3000.000 0.000 1.351
111 1850.00 1200.00 27 280 36 0.425 2000.000 0.000 0.425 3000.000 0.000 1.351
112 1866.67 1200.00 21 299 45 0.425 2000.000 0.000 0.425 3000.000 0.000 1.351
113 1883.34 1200.00 16 267 33 0.425 2000.000 0.000 0.425 3000.000 0.000 1.351
114 1900.00 1200.00 20 300 34 0.425 2000.000 0.000 0.425 3000.000 0.000 1.351
115 1916.67 1200.00 30 273 34 0.425 2000.000 0.000 0.425 3000.000 0.000 1.351
116 1933.34 1200.00 16 277 31 0.425 2000.000 0.000 0.425 3000.000 0.000 1.351
117 1950.00 1200.00 23 302 50 0.425 2000.000 0.000 0.425 3000.000 0.000 1.351
118 1966.67 1200.00 14 288 49 0.425 2000.000 0.000 0.425 3000.000 0.000 1.351
119 1983.34 1200.00 29 260 46 0.425 2000.000 0.000 0.425 3000.000 0.000 1.351
