# BinNR microsec tot-time (s)  O-Beam H-beam AUX Ampl1(V) f1(Hz) phase1(deg) Ampl1(V) f1(Hz) phase1(deg) chi(pos)
0 0.00 1200.00 19 286 62 0.425 2000.000 0.000 0.425 3000.000 0.000 0.077
1 16.67 1200.00 23 277 67 0.425 2000.000 0.000 0.425 3000.000 0.000 0.077
2 33.33 1200.00 20 282 52 0.425 2000.000 0.000 0.425 3000.000 0.000 0.077
3 50.00 1200.00 24 324 60 0.425 2000.000 0.000 0.425 3000.000 0.000 0.077
4 66.67 1200.00 21 280 54 0.425 2000.000 0.000 0.425 3000.000 0.000 0.077
5 83.33 1200.00 28 258 65 0.425 2000.000 0.000 0.425 3000.000 0.000 0.077
6 100.00 1200.00 20 244 52 0.425 2000.000 0.000 0.425 3000.000 0.000 0.077
7 116.67 1200.00 29 265 73 0.425 2000.000 0.000 0.425 3000.000 0.000 0.077
8 133.33 1200.00 31 289 60 0.425 2000.000 0.000 0.425 3000.000 0.000 0.077
9 150.00 1200.00 32 295 74 0.425 2000.000 0.000 0.425 3000.000 0.000 0.077
10 166.67 1200.00 30 262 47 0.425 2000.000 0.000 0.425 3000.000 0.000 0.077
11 183.33 1200.00 26 284 43 0.425 2000.000 0.000 0.425 3000.000 0.000 0.077
12 200.00 1200.00 39 323 59 0.425 2000.000 0.000 0.425 3000.000 0.000 0.077
13 216.67 1200.00 35 268 61 0.425 2000.000 0.000 0.425 3000.000 0.000 0.077
14 233.33 1200.00 34 273 65 0.425 2000.000 0.000 0.425 3000.000 0.000 0.077
15 250.00 1200.00 33 293 56 0.425 2000.000 0.000 0.425 3000.000 0.000 0.077
16 266.67 1200.00 29 288 67 0.425 2000.000 0.000 0.425 3000.000 0.000 0.077
17 283.33 1200.00 37 286 43 0.425 2000.000 0.000 0.425 3000.000 0.000 0.077
18 300.00 1200.00 24 298 56 0.425 2000.000 0.000 0.425 3000.000 0.000 0.077
19 316.67 1200.00 23 292 74 0.425 2000.000 0.000 0.425 3000.000 0.000 0.077
20 333.33 1200.00 23 283 47 0.425 2000.000 0.000 0.425 3000.000 0.000 0.077
21 350.00 1200.00 21 293 55 0.425 2000.000 0.000 0.425 3000.000 0.000 0.077
22 366.67 1200.00 25 284 60 0.425 2000.000 0.000 0.425 3000.000 0.000 0.077
23 383.33 1200.00 15 298 60 0.425 2000.000 0.000 0.425 3000.000 0.000 0.077
24 400.00 1200.00 15 301 66 0.425 2000.000 0.000 0.425 3000.000 0.000 0.077
25 416.67 1200.00 12 292 67 0.425 2000.000 0.000 0.425 3000.000 0.000 0.077
26 433.33 1200.00 12 315 69 0.425 2000.000 0.000 0.425 3000.000 0.000 0.077
27 450.00 1200.00 32 281 72 0.425 2000.000 0.000 0.425 3000.000 0.000 0.077
28 466.67 1200.00 22 284 96 0.425 2000.000 0.000 0.425 3000.000 0.000 0.077
29 483.33 1200.00 21 286 67 0.425 2000.000 0.000 0.425 3000.000 0.000 0.077
30 500.00 1200.00 25 295 93 0.425 2000.000 0.000 0.425 3000.000 0.000 0.077
31 516.67 1200.00 23 285 81 0.425 2000.000 0.000 0.425 3000.000 0.000 0.077
32 533.33 1200.00 23 299 73 0.425 2000.000 0.000 0.425 3000.000 0.000 0.077
33 550.00 1200.00 30 279 78 0.425 2000.000 0.000 0.425 3000.000 0.000 0.077
34 566.67 1200.00 28 288 64 0.425 2000.000 0.000 0.425 3000.000 0.000 0.077
35 583.33 1200.00 19 305 60 0.425 2000.000 0.000 0.425 3000.000 0.000 0.077
36 600.00 1200.00 32 291 66 0.425 2000.000 0.000 0.425 3000.000 0.000 0.077
37 616.67 1200.00 28 290 51 0.425 2000.000 0.000 0.425 3000.000 0.000 0.077
38 633.33 1200.00 22 262 41 0.425 2000.000 0.000 0.425 3000.000 0.000 0.077
39 650.00 1200.00 25 253 43 0.425 2000.000 0.000 0.425 3000.000 0.000 0.077
40 666.67 1200.00 32 252 41 0.425 2000.000 0.000 0.425 3000.000 0.000 0.077
41 683.33 1200.00 22 262 42 0.425 2000.000 0.000 0.425 3000.000 0.000 0.077
42 700.00 1200.00 30 260 48 0.425 2000.000 0.000 0.425 3000.000 0.000 0.077
43 716.67 1200.00 25 288 40 0.425 2000.000 0.000 0.425 3000.000 0.000 0.077
44 733.33 1200.00 33 268 49 0.425 2000.000 0.000 0.425 3000.000 0.000 0.077
45 750.00 1200.00 22 268 60 0.425 2000.000 0.000 0.425 3000.000 0.000 0.077
46 766.67 1200.00 23 275 79 0.425 2000.000 0.000 0.425 3000.000 0.000 0.077
47 783.33 1200.00 25 269 53 0.425 2000.000 0.000 0.425 3000.000 0.000 0.077
48 800.00 1200.00 19 292 58 0.425 2000.000 0.000 0.425 3000.000 0.000 0.077
49 816.67 1200.00 25 259 62 0.425 2000.000 0.000 0.425 3000.000 0.000 0.077
50 833.34 1200.00 21 281 55 0.425 2000.000 0.000 0.425 3000.000 0.000 0.077
51 850.00 1200.00 29 305 71 0.425 2000.000 0.000 0.425 3000.000 0.000 0.077
52 866.67 1200.00 34 272 78 0.425 2000.000 0.000 0.425 3000.000 0.000 0.077
53 883.34 1200.00 22 324 82 0.425 2000.000 0.000 0.425 3000.000 0.000 0.077
54 900.00 1200.00 25 340 74 0.425 2000.000 0.000 0.425 3000.000 0.000 0.077
55 916.67 1200.00 24 327 66 0.425 2000.000 0.000 0.425 3000.000 0.000 0.077
56 933.34 1200.00 33 293 76 0.425 2000.000 0.000 0.425 3000.000 0.000 0.077
57 950.00 1200.00 22 313 75 0.425 2000.000 0.000 0.425 3000.000 0.000 0.077
58 966.67 1200.00 23 319 64 0.425 2000.000 0.000 0.425 3000.000 0.000 0.077
59 983.34 1200.00 25 307 62 0.425 2000.000 0.000 0.425 3000.000 0.000 0.077
60 1000.00 1200.00 27 282 66 0.425 2000.000 0.000 0.425 3000.000 0.000 0.077
61 1016.67 1200.00 15 297 48 0.425 2000.000 0.000 0.425 3000.000 0.000 0.077
62 1033.34 1200.00 19 261 61 0.425 2000.000 0.000 0.425 3000.000 0.000 0.077
63 1050.00 1200.00 27 269 55 0.425 2000.000 0.000 0.425 3000.000 0.000 0.077
64 1066.67 1200.00 28 286 64 0.425 2000.000 0.000 0.425 3000.000 0.000 0.077
65 1083.34 1200.00 24 279 60 0.425 2000.000 0.000 0.425 3000.000 0.000 0.077
66 1100.00 1200.00 31 277 57 0.425 2000.000 0.000 0.425 3000.000 0.000 0.077
67 1116.67 1200.00 27 259 72 0.425 2000.000 0.000 0.425 3000.000 0.000 0.077
68 1133.34 1200.00 29 256 73 0.425 2000.000 0.000 0.425 3000.000 0.000 0.077
69 1150.00 1200.00 27 268 61 0.425 2000.000 0.000 0.425 3000.000 0.000 0.077
70 1166.67 1200.00 37 266 72 0.425 2000.000 0.000 0.425 3000.000 0.000 0.077
71 1183.34 1200.00 38 265 70 0.425 2000.000 0.000 0.425 3000.000 0.000 0.077
72 1200.00 1200.00 38 282 52 0.425 2000.000 0.000 0.425 3000.000 0.000 0.077
73 1216.67 1200.00 34 292 45 0.425 2000.000 0.000 0.425 3000.000 0.000 0.077
74 1233.34 1200.00 18 296 55 0.425 2000.000 0.000 0.425 3000.000 0.000 0.077
75 1250.00 1200.00 29 261 52 0.425 2000.000 0.000 0.425 3000.000 0.000 0.077
76 1266.67 1200.00 22 285 45 0.425 2000.000 0.000 0.425 3000.000 0.000 0.077
77 1283.34 1200.00 24 274 57 0.425 2000.000 0.000 0.425 3000.000 0.000 0.077
78 1300.00 1200.00 19 306 47 0.425 2000.000 0.000 0.425 3000.000 0.000 0.077
79 1316.67 1200.00 18 294 62 0.425 2000.000 0.000 0.425 3000.000 0.000 0.077
80 1333.34 1200.00 23 300 50 0.425 2000.000 0.000 0.425 3000.000 0.000 0.077
81 1350.00 1200.00 17 282 61 0.425 2000.000 0.000 0.425 3000.000 0.000 0.077
82 1366.67 1200.00 18 299 49 0.425 2000.000 0.000 0.425 3000.000 0.000 0.077
83 1383.34 1200.00 19 253 74 0.425 2000.000 0.000 0.425 3000.000 0.000 0.077
84 1400.00 1200.00 11 294 65 0.425 2000.000 0.000 0.425 3000.000 0.000 0.077
85 1416.67 1200.00 14 273 75 0.425 2000.000 0.000 0.425 3000.000 0.000 0.077
86 1433.34 1200.00 21 300 71 0.425 2000.000 0.000 0.425 3000.000 0.000 0.077
87 1450.00 1200.00 22 294 70 0.425 2000.000 0.000 0.425 3000.000 0.000 0.077
88 1466.67 1200.00 19 303 81 0.425 2000.000 0.000 0.425 3000.000 0.000 0.077
89 1483.34 1200.00 18 299 77 0.425 2000.000 0.000 0.425 3000.000 0.000 0.077
90 1500.00 1200.00 32 321 71 0.425 2000.000 0.000 0.425 3000.000 0.000 0.077
91 1516.67 1200.00 28 328 83 0.425 2000.000 0.000 0.425 3000.000 0.000 0.077
92 1533.34 1200.00 22 307 61 0.425 2000.000 0.000 0.425 3000.000 0.000 0.077
93 1550.00 1200.00 28 301 70 0.425 2000.000 0.000 0.425 3000.000 0.000 0.077
94 1566.67 1200.00 38 296 72 0.425 2000.000 0.000 0.425 3000.000 0.000 0.077
95 1583.34 1200.00 33 290 67 0.425 2000.000 0.000 0.425 3000.000 0.000 0.077
96 1600.00 1200.00 38 336 43 0.425 2000.000 0.000 0.425 3000.000 0.000 0.077
97 1616.67 1200.00 32 269 60 0.425 2000.000 0.000 0.425 3000.000 0.000 0.077
98 1633.34 1200.00 36 280 60 0.425 2000.000 0.000 0.425 3000.000 0.000 0.077
99 1650.00 1200.00 40 248 60 0.425 2000.000 0.000 0.425 3000.000 0.000 0.077
100 1666.67 1200.00 20 266 43 0.425 2000.000 0.000 0.425 3000.000 0.000 0.077
101 1683.34 1200.00 28 263 46 0.425 2000.000 0.000 0.425 3000.000 0.000 0.077
102 1700.00 1200.00 22 248 44 0.425 2000.000 0.000 0.425 3000.000 0.000 0.077
103 1716.67 1200.00 30 228 43 0.425 2000.000 0.000 0.425 3000.000 0.000 0.077
104 1733.34 1200.00 25 261 60 0.425 2000.000 0.000 0.425 3000.000 0.000 0.077
105 1750.00 1200.00 18 249 58 0.425 2000.000 0.000 0.425 3000.000 0.000 0.077
106 1766.67 1200.00 22 260 65 0.425 2000.000 0.000 0.425 3000.000 0.000 0.077
107 1783.34 1200.00 17 274 66 0.425 2000.000 0.000 0.425 3000.000 0.000 0.077
108 1800.00 1200.00 22 250 60 0.425 2000.000 0.000 0.425 3000.000 0.000 0.077
109 1816.67 1200.00 27 302 63 0.425 2000.000 0.000 0.425 3000.000 0.000 0.077
110 1833.34 1200.00 22 309 71 0.425 2000.000 0.000 0.425 3000.000 0.000 0.077
111 1850.00 1200.00 24 278 78 0.425 2000.000 0.000 0.425 3000.000 0.000 0.077
112 1866.67 1200.00 28 310 74 0.425 2000.000 0.000 0.425 3000.000 0.000 0.077
113 1883.34 1200.00 24 338 82 0.425 2000.000 0.000 0.425 3000.000 0.000 0.077
114 1900.00 1200.00 26 311 82 0.425 2000.000 0.000 0.425 3000.000 0.000 0.077
115 1916.67 1200.00 34 314 68 0.425 2000.000 0.000 0.425 3000.000 0.000 0.077
116 1933.34 1200.00 24 321 75 0.425 2000.000 0.000 0.425 3000.000 0.000 0.077
117 1950.00 1200.00 25 271 84 0.425 2000.000 0.000 0.425 3000.000 0.000 0.077
118 1966.67 1200.00 27 317 59 0.425 2000.000 0.000 0.425 3000.000 0.000 0.077
119 1983.34 1200.00 18 305 71 0.425 2000.000 0.000 0.425 3000.000 0.000 0.077
