# BinNR microsec tot-time (s)  O-Beam H-beam AUX Ampl1(V) f1(Hz) phase1(deg) Ampl1(V) f1(Hz) phase1(deg) chi(pos)
0 0.00 1200.00 39 240 95 0.425 2000.000 0.000 0.425 3000.000 0.000 0.352
1 16.67 1200.00 35 195 109 0.425 2000.000 0.000 0.425 3000.000 0.000 0.352
2 33.33 1200.00 39 218 101 0.425 2000.000 0.000 0.425 3000.000 0.000 0.352
3 50.00 1200.00 29 204 98 0.425 2000.000 0.000 0.425 3000.000 0.000 0.352
4 66.67 1200.00 33 213 107 0.425 2000.000 0.000 0.425 3000.000 0.000 0.352
5 83.33 1200.00 33 205 96 0.425 2000.000 0.000 0.425 3000.000 0.000 0.352
6 100.00 1200.00 45 213 97 0.425 2000.000 0.000 0.425 3000.000 0.000 0.352
7 116.67 1200.00 39 219 98 0.425 2000.000 0.000 0.425 3000.000 0.000 0.352
8 133.33 1200.00 42 215 98 0.425 2000.000 0.000 0.425 3000.000 0.000 0.352
9 150.00 1200.00 47 210 103 0.425 2000.000 0.000 0.425 3000.000 0.000 0.352
10 166.67 1200.00 35 204 105 0.425 2000.000 0.000 0.425 3000.000 0.000 0.352
11 183.33 1200.00 46 210 129 0.425 2000.000 0.000 0.425 3000.000 0.000 0.352
12 200.00 1200.00 44 216 91 0.425 2000.000 0.000 0.425 3000.000 0.000 0.352
13 216.67 1200.00 48 245 97 0.425 2000.000 0.000 0.425 3000.000 0.000 0.352
14 233.33 1200.00 42 230 110 0.425 2000.000 0.000 0.425 3000.000 0.000 0.352
15 250.00 1200.00 42 220 103 0.425 2000.000 0.000 0.425 3000.000 0.000 0.352
16 266.67 1200.00 44 228 88 0.425 2000.000 0.000 0.425 3000.000 0.000 0.352
17 283.33 1200.00 40 234 102 0.425 2000.000 0.000 0.425 3000.000 0.000 0.352
18 300.00 1200.00 43 233 91 0.425 2000.000 0.000 0.425 3000.000 0.000 0.352
19 316.67 1200.00 29 215 97 0.425 2000.000 0.000 0.425 3000.000 0.000 0.352
20 333.33 1200.00 39 239 98 0.425 2000.000 0.000 0.425 3000.000 0.000 0.352
21 350.00 1200.00 40 205 88 0.425 2000.000 0.000 0.425 3000.000 0.000 0.352
22 366.67 1200.00 30 221 80 0.425 2000.000 0.000 0.425 3000.000 0.000 0.352
23 383.33 1200.00 31 230 103 0.425 2000.000 0.000 0.425 3000.000 0.000 0.352
24 400.00 1200.00 41 199 99 0.425 2000.000 0.000 0.425 3000.000 0.000 0.352
25 416.67 1200.00 27 230 115 0.425 2000.000 0.000 0.425 3000.000 0.000 0.352
26 433.33 1200.00 35 231 127 0.425 2000.000 0.000 0.425 3000.000 0.000 0.352
27 450.00 1200.00 30 228 109 0.425 2000.000 0.000 0.425 3000.000 0.000 0.352
28 466.67 1200.00 46 228 115 0.425 2000.000 0.000 0.425 3000.000 0.000 0.352
29 483.33 1200.00 45 247 114 0.425 2000.000 0.000 0.425 3000.000 0.000 0.352
30 500.00 1200.00 46 233 122 0.425 2000.000 0.000 0.425 3000.000 0.000 0.352
31 516.67 1200.00 46 215 130 0.425 2000.000 0.000 0.425 3000.000 0.000 0.352
32 533.33 1200.00 50 252 111 0.425 2000.000 0.000 0.425 3000.000 0.000 0.352
33 550.00 1200.00 35 251 109 0.425 2000.000 0.000 0.425 3000.000 0.000 0.352
34 566.67 1200.00 46 259 105 0.425 2000.000 0.000 0.425 3000.000 0.000 0.352
35 583.33 1200.00 35 211 103 0.425 2000.000 0.000 0.425 3000.000 0.000 0.352
36 600.00 1200.00 40 223 95 0.425 2000.000 0.000 0.425 3000.000 0.000 0.352
37 616.67 1200.00 36 224 101 0.425 2000.000 0.000 0.425 3000.000 0.000 0.352
38 633.33 1200.00 39 213 91 0.425 2000.000 0.000 0.425 3000.000 0.000 0.352
39 650.00 1200.00 38 212 72 0.425 2000.000 0.000 0.425 3000.000 0.000 0.352
40 666.67 1200.00 39 187 81 0.425 2000.000 0.000 0.425 3000.000 0.000 0.352
41 683.33 1200.00 32 200 85 0.425 2000.000 0.000 0.425 3000.000 0.000 0.352
42 700.00 1200.00 39 188 107 0.425 2000.000 0.000 0.425 3000.000 0.000 0.352
43 716.67 1200.00 32 198 83 0.425 2000.000 0.000 0.425 3000.000 0.000 0.352
44 733.33 1200.00 37 199 101 0.425 2000.000 0.000 0.425 3000.000 0.000 0.352
45 750.00 1200.00 30 231 105 0.425 2000.000 0.000 0.425 3000.000 0.000 0.352
46 766.67 1200.00 41 214 91 0.425 2000.000 0.000 0.425 3000.000 0.000 0.352
47 783.33 1200.00 26 210 81 0.425 2000.000 0.000 0.425 3000.000 0.000 0.352
48 800.00 1200.00 53 236 104 0.425 2000.000 0.000 0.425 3000.000 0.000 0.352
49 816.67 1200.00 51 213 99 0.425 2000.000 0.000 0.425 3000.000 0.000 0.352
50 833.34 1200.00 42 229 123 0.425 2000.000 0.000 0.425 3000.000 0.000 0.352
51 850.00 1200.00 46 251 113 0.425 2000.000 0.000 0.425 3000.000 0.000 0.352
52 866.67 1200.00 51 249 113 0.425 2000.000 0.000 0.425 3000.000 0.000 0.352
53 883.34 1200.00 34 242 106 0.425 2000.000 0.000 0.425 3000.000 0.000 0.352
54 900.00 1200.00 38 238 106 0.425 2000.000 0.000 0.425 3000.000 0.000 0.352
55 916.67 1200.00 52 228 116 0.425 2000.000 0.000 0.425 3000.000 0.000 0.352
56 933.34 1200.00 25 258 106 0.425 2000.000 0.000 0.425 3000.000 0.000 0.352
57 950.00 1200.00 35 235 108 0.425 2000.000 0.000 0.425 3000.000 0.000 0.352
58 966.67 1200.00 39 222 87 0.425 2000.000 0.000 0.425 3000.000 0.000 0.352
59 983.34 1200.00 34 231 111 0.425 2000.000 0.000 0.425 3000.000 0.000 0.352
60 1000.00 1200.00 31 227 82 0.425 2000.000 0.000 0.425 3000.000 0.000 0.352
61 1016.67 1200.00 39 231 93 0.425 2000.000 0.000 0.425 3000.000 0.000 0.352
62 1033.34 1200.00 43 234 83 0.425 2000.000 0.000 0.425 3000.000 0.000 0.352
63 1050.00 1200.00 35 212 100 0.425 2000.000 0.000 0.425 3000.000 0.000 0.352
64 1066.67 1200.00 34 191 117 0.425 2000.000 0.000 0.425 3000.000 0.000 0.352
65 1083.34 1200.00 28 186 96 0.425 2000.000 0.000 0.425 3000.000 0.000 0.352
66 1100.00 1200.00 38 223 104 0.425 2000.000 0.000 0.425 3000.000 0.000 0.352
67 1116.67 1200.00 38 209 104 0.425 2000.000 0.000 0.425 3000.000 0.000 0.352
68 1133.34 1200.00 36 209 106 0.425 2000.000 0.000 0.425 3000.000 0.000 0.352
69 1150.00 1200.00 49 202 111 0.425 2000.000 0.000 0.425 3000.000 0.000 0.352
70 1166.67 1200.00 53 229 104 0.425 2000.000 0.000 0.425 3000.000 0.000 0.352
71 1183.34 1200.00 49 205 103 0.425 2000.000 0.000 0.425 3000.000 0.000 0.352
72 1200.00 1200.00 37 233 99 0.425 2000.000 0.000 0.425 3000.000 0.000 0.352
73 1216.67 1200.00 56 223 92 0.425 2000.000 0.000 0.425 3000.000 0.000 0.352
74 1233.34 1200.00 41 212 112 0.425 2000.000 0.000 0.425 3000.000 0.000 0.352
75 1250.00 1200.00 36 222 89 0.425 2000.000 0.000 0.425 3000.000 0.000 0.352
76 1266.67 1200.00 40 235 97 0.425 2000.000 0.000 0.425 3000.000 0.000 0.352
77 1283.34 1200.00 43 210 91 0.425 2000.000 0.000 0.425 3000.000 0.000 0.352
78 1300.00 1200.00 26 221 87 0.425 2000.000 0.000 0.425 3000.000 0.000 0.352
79 1316.67 1200.00 35 223 87 0.425 2000.000 0.000 0.425 3000.000 0.000 0.352
80 1333.34 1200.00 44 233 92 0.425 2000.000 0.000 0.425 3000.000 0.000 0.352
81 1350.00 1200.00 25 224 85 0.425 2000.000 0.000 0.425 3000.000 0.000 0.352
82 1366.67 1200.00 37 208 110 0.425 2000.000 0.000 0.425 3000.000 0.000 0.352
83 1383.34 1200.00 33 235 101 0.425 2000.000 0.000 0.425 3000.000 0.000 0.352
84 1400.00 1200.00 21 228 96 0.425 2000.000 0.000 0.425 3000.000 0.000 0.352
85 1416.67 1200.00 26 233 78 0.425 2000.000 0.000 0.425 3000.000 0.000 0.352
86 1433.34 1200.00 53 192 109 0.425 2000.000 0.000 0.425 3000.000 0.000 0.352
87 1450.00 1200.00 36 224 110 0.425 2000.000 0.000 0.425 3000.000 0.000 0.352
88 1466.67 1200.00 38 231 97 0.425 2000.000 0.000 0.425 3000.000 0.000 0.352
89 1483.34 1200.00 23 207 93 0.425 2000.000 0.000 0.425 3000.000 0.000 0.352
90 1500.00 1200.00 44 214 116 0.425 2000.000 0.000 0.425 3000.000 0.000 0.352
91 1516.67 1200.00 49 252 126 0.425 2000.000 0.000 0.425 3000.000 0.000 0.352
92 1533.34 1200.00 45 221 125 0.425 2000.000 0.000 0.425 3000.000 0.000 0.352
93 1550.00 1200.00 37 227 121 0.425 2000.000 0.000 0.425 3000.000 0.000 0.352
94 1566.67 1200.00 30 232 108 0.425 2000.000 0.000 0.425 3000.000 0.000 0.352
95 1583.34 1200.00 44 216 105 0.425 2000.000 0.000 0.425 3000.000 0.000 0.352
96 1600.00 1200.00 52 238 88 0.425 2000.000 0.000 0.425 3000.000 0.000 0.352
97 1616.67 1200.00 31 218 104 0.425 2000.000 0.000 0.425 3000.000 0.000 0.352
98 1633.34 1200.00 46 198 99 0.425 2000.000 0.000 0.425 3000.000 0.000 0.352
99 1650.00 1200.00 40 207 89 0.425 2000.000 0.000 0.425 3000.000 0.000 0.352
100 1666.67 1200.00 51 206 89 0.425 2000.000 0.000 0.425 3000.000 0.000 0.352
101 1683.34 1200.00 44 234 82 0.425 2000.000 0.000 0.425 3000.000 0.000 0.352
102 1700.00 1200.00 42 212 81 0.425 2000.000 0.000 0.425 3000.000 0.000 0.352
103 1716.67 1200.00 38 209 88 0.425 2000.000 0.000 0.425 3000.000 0.000 0.352
104 1733.34 1200.00 40 218 96 0.425 2000.000 0.000 0.425 3000.000 0.000 0.352
105 1750.00 1200.00 36 214 86 0.425 2000.000 0.000 0.425 3000.000 0.000 0.352
106 1766.67 1200.00 47 190 94 0.425 2000.000 0.000 0.425 3000.000 0.000 0.352
107 1783.34 1200.00 36 210 80 0.425 2000.000 0.000 0.425 3000.000 0.000 0.352
108 1800.00 1200.00 34 212 103 0.425 2000.000 0.000 0.425 3000.000 0.000 0.352
109 1816.67 1200.00 45 219 132 0.425 2000.000 0.000 0.425 3000.000 0.000 0.352
110 1833.34 1200.00 32 236 91 0.425 2000.000 0.000 0.425 3000.000 0.000 0.352
111 1850.00 1200.00 33 244 125 0.425 2000.000 0.000 0.425 3000.000 0.000 0.352
112 1866.67 1200.00 36 245 108 0.425 2000.000 0.000 0.425 3000.000 0.000 0.352
113 1883.34 1200.00 38 235 113 0.425 2000.000 0.000 0.425 3000.000 0.000 0.352
114 1900.00 1200.00 33 232 105 0.425 2000.000 0.000 0.425 3000.000 0.000 0.352
115 1916.67 1200.00 32 250 115 0.425 2000.000 0.000 0.425 3000.000 0.000 0.352
116 1933.34 1200.00 34 249 123 0.425 2000.000 0.000 0.425 3000.000 0.000 0.352
117 1950.00 1200.00 35 250 122 0.425 2000.000 0.000 0.425 3000.000 0.000 0.352
118 1966.67 1200.00 31 234 110 0.425 2000.000 0.000 0.425 3000.000 0.000 0.352
119 1983.34 1200.00 35 214 88 0.425 2000.000 0.000 0.425 3000.000 0.000 0.352
