# BinNR microsec tot-time (s)  O-Beam H-beam AUX Ampl1(V) f1(Hz) phase1(deg) Ampl1(V) f1(Hz) phase1(deg) chi(pos)
0 0.00 1200.00 29 307 60 0.425 2000.000 0.000 0.425 3000.000 0.000 -0.648
1 16.67 1200.00 18 279 40 0.425 2000.000 0.000 0.425 3000.000 0.000 -0.648
2 33.33 1200.00 23 315 48 0.425 2000.000 0.000 0.425 3000.000 0.000 -0.648
3 50.00 1200.00 19 365 55 0.425 2000.000 0.000 0.425 3000.000 0.000 -0.648
4 66.67 1200.00 23 314 46 0.425 2000.000 0.000 0.425 3000.000 0.000 -0.648
5 83.33 1200.00 22 353 55 0.425 2000.000 0.000 0.425 3000.000 0.000 -0.648
6 100.00 1200.00 23 311 44 0.425 2000.000 0.000 0.425 3000.000 0.000 -0.648
7 116.67 1200.00 14 340 53 0.425 2000.000 0.000 0.425 3000.000 0.000 -0.648
8 133.33 1200.00 25 332 42 0.425 2000.000 0.000 0.425 3000.000 0.000 -0.648
9 150.00 1200.00 14 304 49 0.425 2000.000 0.000 0.425 3000.000 0.000 -0.648
10 166.67 1200.00 20 330 47 0.425 2000.000 0.000 0.425 3000.000 0.000 -0.648
11 183.33 1200.00 16 304 41 0.425 2000.000 0.000 0.425 3000.000 0.000 -0.648
12 200.00 1200.00 14 309 35 0.425 2000.000 0.000 0.425 3000.000 0.000 -0.648
13 216.67 1200.00 24 307 47 0.425 2000.000 0.000 0.425 3000.000 0.000 -0.648
14 233.33 1200.00 16 323 51 0.425 2000.000 0.000 0.425 3000.000 0.000 -0.648
15 250.00 1200.00 13 322 52 0.425 2000.000 0.000 0.425 3000.000 0.000 -0.648
16 266.67 1200.00 20 286 51 0.425 2000.000 0.000 0.425 3000.000 0.000 -0.648
17 283.33 1200.00 16 292 47 0.425 2000.000 0.000 0.425 3000.000 0.000 -0.648
18 300.00 1200.00 17 298 35 0.425 2000.000 0.000 0.425 3000.000 0.000 -0.648
19 316.67 1200.00 24 319 58 0.425 2000.000 0.000 0.425 3000.000 0.000 -0.648
20 333.33 1200.00 18 286 52 0.425 2000.000 0.000 0.425 3000.000 0.000 -0.648
21 350.00 1200.00 27 332 51 0.425 2000.000 0.000 0.425 3000.000 0.000 -0.648
22 366.67 1200.00 19 275 44 0.425 2000.000 0.000 0.425 3000.000 0.000 -0.648
23 383.33 1200.00 21 298 60 0.425 2000.000 0.000 0.425 3000.000 0.000 -0.648
24 400.00 1200.00 26 285 37 0.425 2000.000 0.000 0.425 3000.000 0.000 -0.648
25 416.67 1200.00 21 294 33 0.425 2000.000 0.000 0.425 3000.000 0.000 -0.648
26 433.33 1200.00 21 299 40 0.425 2000.000 0.000 0.425 3000.000 0.000 -0.648
27 450.00 1200.00 34 303 41 0.425 2000.000 0.000 0.425 3000.000 0.000 -0.648
28 466.67 1200.00 27 299 39 0.425 2000.000 0.000 0.425 3000.000 0.000 -0.648
29 483.33 1200.00 23 292 35 0.425 2000.000 0.000 0.425 3000.000 0.000 -0.648
30 500.00 1200.00 22 289 45 0.425 2000.000 0.000 0.425 3000.000 0.000 -0.648
31 516.67 1200.00 24 299 40 0.425 2000.000 0.000 0.425 3000.000 0.000 -0.648
32 533.33 1200.00 18 288 43 0.425 2000.000 0.000 0.425 3000.000 0.000 -0.648
33 550.00 1200.00 26 303 33 0.425 2000.000 0.000 0.425 3000.000 0.000 -0.648
34 566.67 1200.00 13 285 48 0.425 2000.000 0.000 0.425 3000.000 0.000 -0.648
35 583.33 1200.00 22 302 46 0.425 2000.000 0.000 0.425 3000.000 0.000 -0.648
36 600.00 1200.00 20 301 45 0.425 2000.000 0.000 0.425 3000.000 0.000 -0.648
37 616.67 1200.00 12 290 53 0.425 2000.000 0.000 0.425 3000.000 0.000 -0.648
38 633.33 1200.00 16 316 42 0.425 2000.000 0.000 0.425 3000.000 0.000 -0.648
39 650.00 1200.00 16 330 58 0.425 2000.000 0.000 0.425 3000.000 0.000 -0.648
40 666.67 1200.00 26 295 72 0.425 2000.000 0.000 0.425 3000.000 0.000 -0.648
41 683.33 1200.00 13 347 62 0.425 2000.000 0.000 0.425 3000.000 0.000 -0.648
42 700.00 1200.00 17 332 70 0.425 2000.000 0.000 0.425 3000.000 0.000 -0.648
43 716.67 1200.00 18 344 65 0.425 2000.000 0.000 0.425 3000.000 0.000 -0.648
44 733.33 1200.00 27 324 63 0.425 2000.000 0.000 0.425 3000.000 0.000 -0.648
45 750.00 1200.00 20 315 57 0.425 2000.000 0.000 0.425 3000.000 0.000 -0.648
46 766.67 1200.00 15 322 56 0.425 2000.000 0.000 0.425 3000.000 0.000 -0.648
47 783.33 1200.00 31 305 45 0.425 2000.000 0.000 0.425 3000.000 0.000 -0.648
48 800.00 1200.00 25 296 40 0.425 2000.000 0.000 0.425 3000.000 0.000 -0.648
49 816.67 1200.00 19 268 36 0.425 2000.000 0.000 0.425 3000.000 0.000 -0.648
50 833.34 1200.00 18 283 40 0.425 2000.000 0.000 0.425 3000.000 0.000 -0.648
51 850.00 1200.00 27 292 44 0.425 2000.000 0.000 0.425 3000.000 0.000 -0.648
52 866.67 1200.00 16 271 34 0.425 2000.000 0.000 0.425 3000.000 0.000 -0.648
53 883.34 1200.00 18 308 42 0.425 2000.000 0.000 0.425 3000.000 0.000 -0.648
54 900.00 1200.00 22 283 37 0.425 2000.000 0.000 0.425 3000.000 0.000 -0.648
55 916.67 1200.00 16 281 29 0.425 2000.000 0.000 0.425 3000.000 0.000 -0.648
56 933.34 1200.00 23 278 42 0.425 2000.000 0.000 0.425 3000.000 0.000 -0.648
57 950.00 1200.00 25 282 45 0.425 2000.000 0.000 0.425 3000.000 0.000 -0.648
58 966.67 1200.00 27 295 41 0.425 2000.000 0.000 0.425 3000.000 0.000 -0.648
59 983.34 1200.00 34 317 36 0.425 2000.000 0.000 0.425 3000.000 0.000 -0.648
60 1000.00 1200.00 26 266 58 0.425 2000.000 0.000 0.425 3000.000 0.000 -0.648
61 1016.67 1200.00 14 333 45 0.425 2000.000 0.000 0.425 3000.000 0.000 -0.648
62 1033.34 1200.00 19 299 64 0.425 2000.000 0.000 0.425 3000.000 0.000 -0.648
63 1050.00 1200.00 28 330 46 0.425 2000.000 0.000 0.425 3000.000 0.000 -0.648
64 1066.67 1200.00 29 306 48 0.425 2000.000 0.000 0.425 3000.000 0.000 -0.648
65 1083.34 1200.00 20 320 48 0.425 2000.000 0.000 0.425 3000.000 0.000 -0.648
66 1100.00 1200.00 18 293 51 0.425 2000.000 0.000 0.425 3000.000 0.000 -0.648
67 1116.67 1200.00 27 329 60 0.425 2000.000 0.000 0.425 3000.000 0.000 -0.648
68 1133.34 1200.00 16 326 39 0.425 2000.000 0.000 0.425 3000.000 0.000 -0.648
69 1150.00 1200.00 14 301 56 0.425 2000.000 0.000 0.425 3000.000 0.000 -0.648
70 1166.67 1200.00 19 315 51 0.425 2000.000 0.000 0.425 3000.000 0.000 -0.648
71 1183.34 1200.00 15 308 38 0.425 2000.000 0.000 0.425 3000.000 0.000 -0.648
72 1200.00 1200.00 15 321 51 0.425 2000.000 0.000 0.425 3000.000 0.000 -0.648
73 1216.67 1200.00 14 315 48 0.425 2000.000 0.000 0.425 3000.000 0.000 -0.648
74 1233.34 1200.00 18 307 45 0.425 2000.000 0.000 0.425 3000.000 0.000 -0.648
75 1250.00 1200.00 13 313 39 0.425 2000.000 0.000 0.425 3000.000 0.000 -0.648
76 1266.67 1200.00 25 312 41 0.425 2000.000 0.000 0.425 3000.000 0.000 -0.648
77 1283.34 1200.00 13 309 60 0.425 2000.000 0.000 0.425 3000.000 0.000 -0.648
78 1300.00 1200.00 12 282 48 0.425 2000.000 0.000 0.425 3000.000 0.000 -0.648
79 1316.67 1200.00 23 295 51 0.425 2000.000 0.000 0.425 3000.000 0.000 -0.648
80 1333.34 1200.00 22 332 55 0.425 2000.000 0.000 0.425 3000.000 0.000 -0.648
81 1350.00 1200.00 19 309 49 0.425 2000.000 0.000 0.425 3000.000 0.000 -0.648
82 1366.67 1200.00 30 304 64 0.425 2000.000 0.000 0.425 3000.000 0.000 -0.648
83 1383.34 1200.00 25 312 49 0.425 2000.000 0.000 0.425 3000.000 0.000 -0.648
84 1400.00 1200.00 30 316 48 0.425 2000.000 0.000 0.425 3000.000 0.000 -0.648
85 1416.67 1200.00 25 299 38 0.425 2000.000 0.000 0.425 3000.000 0.000 -0.648
86 1433.34 1200.00 24 287 41 0.425 2000.000 0.000 0.425 3000.000 0.000 -0.648
87 1450.00 1200.00 22 325 33 0.425 2000.000 0.000 0.425 3000.000 0.000 -0.648
88 1466.67 1200.00 27 302 33 0.425 2000.000 0.000 0.425 3000.000 0.000 -0.648
89 1483.34 1200.00 25 322 50 0.425 2000.000 0.000 0.425 3000.000 0.000 -0.648
90 1500.00 1200.00 22 288 45 0.425 2000.000 0.000 0.425 3000.000 0.000 -0.648
91 1516.67 1200.00 22 279 30 0.425 2000.000 0.000 0.425 3000.000 0.000 -0.648
92 1533.34 1200.00 14 293 33 0.425 2000.000 0.000 0.425 3000.000 0.000 -0.648
93 1550.00 1200.00 15 343 42 0.425 2000.000 0.000 0.425 3000.000 0.000 -0.648
94 1566.67 1200.00 20 292 42 0.425 2000.000 0.000 0.425 3000.000 0.000 -0.648
95 1583.34 1200.00 15 324 51 0.425 2000.000 0.000 0.425 3000.000 0.000 -0.648
96 1600.00 1200.00 17 311 39 0.425 2000.000 0.000 0.425 3000.000 0.000 -0.648
97 1616.67 1200.00 14 330 45 0.425 2000.000 0.000 0.425 3000.000 0.000 -0.648
98 1633.34 1200.00 17 314 51 0.425 2000.000 0.000 0.425 3000.000 0.000 -0.648
99 1650.00 1200.00 21 330 53 0.425 2000.000 0.000 0.425 3000.000 0.000 -0.648
100 1666.67 1200.00 15 318 57 0.425 2000.000 0.000 0.425 3000.000 0.000 -0.648
101 1683.34 1200.00 20 332 60 0.425 2000.000 0.000 0.425 3000.000 0.000 -0.648
102 1700.00 1200.00 17 331 55 0.425 2000.000 0.000 0.425 3000.000 0.000 -0.648
103 1716.67 1200.00 13 316 59 0.425 2000.000 0.000 0.425 3000.000 0.000 -0.648
104 1733.34 1200.00 18 325 46 0.425 2000.000 0.000 0.425 3000.000 0.000 -0.648
105 1750.00 1200.00 22 337 57 0.425 2000.000 0.000 0.425 3000.000 0.000 -0.648
106 1766.67 1200.00 29 314 47 0.425 2000.000 0.000 0.425 3000.000 0.000 -0.648
107 1783.34 1200.00 29 331 69 0.425 2000.000 0.000 0.425 3000.000 0.000 -0.648
108 1800.00 1200.00 16 318 48 0.425 2000.000 0.000 0.425 3000.000 0.000 -0.648
109 1816.67 1200.00 26 310 35 0.425 2000.000 0.000 0.425 3000.000 0.000 -0.648
110 1833.34 1200.00 30 296 36 0.425 2000.000 0.000 0.425 3000.000 0.000 -0.648
111 1850.00 1200.00 18 327 38 0.425 2000.000 0.000 0.425 3000.000 0.000 -0.648
112 1866.67 1200.00 21 284 44 0.425 2000.000 0.000 0.425 3000.000 0.000 -0.648
113 1883.34 1200.00 17 271 45 0.425 2000.000 0.000 0.425 3000.000 0.000 -0.648
114 1900.00 1200.00 25 308 37 0.425 2000.000 0.000 0.425 3000.000 0.000 -0.648
115 1916.67 1200.00 18 277 40 0.425 2000.000 0.000 0.425 3000.000 0.000 -0.648
116 1933.34 1200.00 17 284 38 0.425 2000.000 0.000 0.425 3000.000 0.000 -0.648
117 1950.00 1200.00 18 255 50 0.425 2000.000 0.000 0.425 3000.000 0.000 -0.648
118 1966.67 1200.00 15 325 48 0.425 2000.000 0.000 0.425 3000.000 0.000 -0.648
119 1983.34 1200.00 15 273 40 0.425 2000.000 0.000 0.425 3000.000 0.000 -0.648
