# BinNR microsec tot-time (s)  O-Beam AUX Ampl(V) f(Hz) phase(deg) chi(pos)
0 0.00 1200.00 37 102 1.100 10000.000 0.000 -1.516
1 3.00 1200.00 78 185 1.100 10000.000 0.000 -1.516
2 6.00 1200.00 100 204 1.100 10000.000 0.000 -1.516
3 9.00 1200.00 85 216 1.100 10000.000 0.000 -1.516
4 12.00 1200.00 91 204 1.100 10000.000 0.000 -1.516
5 15.00 1200.00 83 232 1.100 10000.000 0.000 -1.516
6 18.00 1200.00 100 243 1.100 10000.000 0.000 -1.516
7 21.00 1200.00 91 276 1.100 10000.000 0.000 -1.516
8 24.00 1200.00 102 256 1.100 10000.000 0.000 -1.516
9 27.00 1200.00 91 265 1.100 10000.000 0.000 -1.516
10 30.00 1200.00 110 265 1.100 10000.000 0.000 -1.516
11 33.00 1200.00 97 309 1.100 10000.000 0.000 -1.516
12 36.00 1200.00 110 279 1.100 10000.000 0.000 -1.516
13 39.00 1200.00 86 270 1.100 10000.000 0.000 -1.516
14 42.00 1200.00 90 253 1.100 10000.000 0.000 -1.516
15 45.00 1200.00 88 239 1.100 10000.000 0.000 -1.516
16 48.00 1200.00 87 277 1.100 10000.000 0.000 -1.516
17 51.00 1200.00 81 247 1.100 10000.000 0.000 -1.516
18 54.00 1200.00 97 243 1.100 10000.000 0.000 -1.516
19 57.00 1200.00 89 247 1.100 10000.000 0.000 -1.516
20 60.00 1200.00 83 241 1.100 10000.000 0.000 -1.516
21 63.00 1200.00 73 247 1.100 10000.000 0.000 -1.516
22 66.00 1200.00 74 226 1.100 10000.000 0.000 -1.516
23 69.00 1200.00 69 198 1.100 10000.000 0.000 -1.516
24 72.00 1200.00 78 185 1.100 10000.000 0.000 -1.516
25 75.00 1200.00 88 197 1.100 10000.000 0.000 -1.516
26 78.00 1200.00 83 216 1.100 10000.000 0.000 -1.516
27 81.00 1200.00 93 184 1.100 10000.000 0.000 -1.516
28 84.00 1200.00 91 204 1.100 10000.000 0.000 -1.516
29 87.00 1200.00 76 163 1.100 10000.000 0.000 -1.516
30 90.00 1200.00 87 162 1.100 10000.000 0.000 -1.516
31 93.00 1200.00 88 181 1.100 10000.000 0.000 -1.516
32 96.00 1200.00 92 173 1.100 10000.000 0.000 -1.516
33 99.00 1200.00 89 195 1.100 10000.000 0.000 -1.516
34 102.00 1200.00 86 181 1.100 10000.000 0.000 -1.516
35 105.00 1200.00 91 187 1.100 10000.000 0.000 -1.516
36 108.00 1200.00 74 208 1.100 10000.000 0.000 -1.516
37 111.00 1200.00 78 203 1.100 10000.000 0.000 -1.516
38 114.00 1200.00 93 223 1.100 10000.000 0.000 -1.516
39 117.00 1200.00 84 220 1.100 10000.000 0.000 -1.516
40 120.00 1200.00 105 240 1.100 10000.000 0.000 -1.516
41 123.00 1200.00 112 265 1.100 10000.000 0.000 -1.516
42 126.00 1200.00 96 262 1.100 10000.000 0.000 -1.516
43 129.00 1200.00 100 275 1.100 10000.000 0.000 -1.516
44 132.00 1200.00 100 287 1.100 10000.000 0.000 -1.516
45 135.00 1200.00 84 293 1.100 10000.000 0.000 -1.516
46 138.00 1200.00 70 271 1.100 10000.000 0.000 -1.516
47 141.00 1200.00 90 295 1.100 10000.000 0.000 -1.516
48 144.00 1200.00 88 258 1.100 10000.000 0.000 -1.516
49 147.00 1200.00 97 297 1.100 10000.000 0.000 -1.516
50 150.00 1200.00 89 265 1.100 10000.000 0.000 -1.516
51 153.00 1200.00 85 247 1.100 10000.000 0.000 -1.516
52 156.00 1200.00 85 264 1.100 10000.000 0.000 -1.516
53 159.00 1200.00 82 239 1.100 10000.000 0.000 -1.516
54 162.00 1200.00 89 243 1.100 10000.000 0.000 -1.516
55 165.00 1200.00 80 212 1.100 10000.000 0.000 -1.516
56 168.00 1200.00 95 238 1.100 10000.000 0.000 -1.516
57 171.00 1200.00 92 207 1.100 10000.000 0.000 -1.516
58 174.00 1200.00 82 226 1.100 10000.000 0.000 -1.516
59 177.00 1200.00 79 163 1.100 10000.000 0.000 -1.516
60 180.00 1200.00 81 207 1.100 10000.000 0.000 -1.516
61 183.00 1200.00 88 187 1.100 10000.000 0.000 -1.516
62 186.00 1200.00 81 179 1.100 10000.000 0.000 -1.516
63 189.00 1200.00 82 157 1.100 10000.000 0.000 -1.516
64 192.00 1200.00 70 150 1.100 10000.000 0.000 -1.516
65 195.00 1200.00 108 183 1.100 10000.000 0.000 -1.516
66 198.00 1200.00 90 189 1.100 10000.000 0.000 -1.516
67 201.00 1200.00 84 203 1.100 10000.000 0.000 -1.516
68 204.00 1200.00 79 208 1.100 10000.000 0.000 -1.516
69 207.00 1200.00 86 191 1.100 10000.000 0.000 -1.516
70 210.00 1200.00 99 233 1.100 10000.000 0.000 -1.516
71 213.00 1200.00 89 221 1.100 10000.000 0.000 -1.516
72 216.00 1200.00 77 230 1.100 10000.000 0.000 -1.516
73 219.00 1200.00 97 247 1.100 10000.000 0.000 -1.516
74 222.00 1200.00 89 248 1.100 10000.000 0.000 -1.516
75 225.00 1200.00 87 260 1.100 10000.000 0.000 -1.516
76 228.00 1200.00 92 235 1.100 10000.000 0.000 -1.516
77 231.00 1200.00 83 251 1.100 10000.000 0.000 -1.516
78 234.00 1200.00 100 248 1.100 10000.000 0.000 -1.516
79 237.00 1200.00 94 273 1.100 10000.000 0.000 -1.516
80 240.00 1200.00 95 299 1.100 10000.000 0.000 -1.516
81 243.00 1200.00 94 295 1.100 10000.000 0.000 -1.516
82 246.00 1200.00 105 266 1.100 10000.000 0.000 -1.516
83 249.00 1200.00 100 245 1.100 10000.000 0.000 -1.516
84 252.00 1200.00 105 277 1.100 10000.000 0.000 -1.516
85 255.00 1200.00 110 252 1.100 10000.000 0.000 -1.516
86 258.00 1200.00 82 273 1.100 10000.000 0.000 -1.516
87 261.00 1200.00 75 249 1.100 10000.000 0.000 -1.516
88 264.00 1200.00 72 223 1.100 10000.000 0.000 -1.516
89 267.00 1200.00 71 224 1.100 10000.000 0.000 -1.516
90 270.00 1200.00 78 196 1.100 10000.000 0.000 -1.516
91 273.00 1200.00 94 192 1.100 10000.000 0.000 -1.516
92 276.00 1200.00 75 202 1.100 10000.000 0.000 -1.516
93 279.00 1200.00 83 173 1.100 10000.000 0.000 -1.516
94 282.00 1200.00 98 175 1.100 10000.000 0.000 -1.516
95 285.00 1200.00 73 174 1.100 10000.000 0.000 -1.516
96 288.00 1200.00 87 178 1.100 10000.000 0.000 -1.516
97 291.00 1200.00 82 172 1.100 10000.000 0.000 -1.516
98 294.00 1200.00 82 181 1.100 10000.000 0.000 -1.516
99 297.00 1200.00 76 160 1.100 10000.000 0.000 -1.516
100 300.00 1200.00 81 173 1.100 10000.000 0.000 -1.516
101 303.00 1200.00 97 187 1.100 10000.000 0.000 -1.516
102 306.00 1200.00 97 184 1.100 10000.000 0.000 -1.516
103 309.00 1200.00 93 190 1.100 10000.000 0.000 -1.516
104 312.00 1200.00 104 214 1.100 10000.000 0.000 -1.516
105 315.00 1200.00 81 237 1.100 10000.000 0.000 -1.516
106 318.00 1200.00 83 256 1.100 10000.000 0.000 -1.516
107 321.00 1200.00 99 210 1.100 10000.000 0.000 -1.516
108 324.00 1200.00 111 267 1.100 10000.000 0.000 -1.516
109 327.00 1200.00 101 286 1.100 10000.000 0.000 -1.516
110 330.00 1200.00 103 274 1.100 10000.000 0.000 -1.516
111 333.00 1200.00 110 267 1.100 10000.000 0.000 -1.516
112 336.00 1200.00 90 320 1.100 10000.000 0.000 -1.516
113 339.00 1200.00 115 271 1.100 10000.000 0.000 -1.516
114 342.00 1200.00 94 256 1.100 10000.000 0.000 -1.516
115 345.00 1200.00 93 289 1.100 10000.000 0.000 -1.516
116 348.00 1200.00 101 278 1.100 10000.000 0.000 -1.516
117 351.00 1200.00 100 284 1.100 10000.000 0.000 -1.516
118 354.00 1200.00 93 252 1.100 10000.000 0.000 -1.516
119 357.00 1200.00 91 251 1.100 10000.000 0.000 -1.516
120 360.00 1200.00 97 226 1.100 10000.000 0.000 -1.516
121 363.00 1200.00 101 238 1.100 10000.000 0.000 -1.516
122 366.00 1200.00 81 203 1.100 10000.000 0.000 -1.516
123 369.00 1200.00 88 217 1.100 10000.000 0.000 -1.516
124 372.00 1200.00 94 197 1.100 10000.000 0.000 -1.516
125 375.00 1200.00 98 179 1.100 10000.000 0.000 -1.516
126 378.00 1200.00 89 170 1.100 10000.000 0.000 -1.516
127 381.00 1200.00 84 163 1.100 10000.000 0.000 -1.516
128 384.00 1200.00 86 182 1.100 10000.000 0.000 -1.516
129 387.00 1200.00 87 192 1.100 10000.000 0.000 -1.516
130 390.00 1200.00 87 180 1.100 10000.000 0.000 -1.516
131 393.00 1200.00 70 183 1.100 10000.000 0.000 -1.516
132 396.00 1200.00 58 181 1.100 10000.000 0.000 -1.516
133 399.00 1200.00 74 205 1.100 10000.000 0.000 -1.516
134 402.00 1200.00 84 177 1.100 10000.000 0.000 -1.516
