# BinNR microsec tot-time (s)  O-Beam H-beam AUX Ampl(V) f(Hz) phase(deg) chi(pos)
0 0.00 1200.00 171 875 3 5.155 2000.000 0.000 -0.648
1 25.00 1200.00 166 886 3 5.155 2000.000 0.000 -0.648
2 50.00 1200.00 159 703 2 5.155 2000.000 0.000 -0.648
3 75.00 1200.00 170 616 2 5.155 2000.000 0.000 -0.648
4 100.00 1200.00 149 599 6 5.155 2000.000 0.000 -0.648
5 125.00 1200.00 169 608 3 5.155 2000.000 0.000 -0.648
6 150.00 1200.00 240 595 2 5.155 2000.000 0.000 -0.648
7 175.00 1200.00 388 666 0 5.155 2000.000 0.000 -0.648
8 200.00 1200.00 463 595 2 5.155 2000.000 0.000 -0.648
9 225.00 1200.00 463 618 3 5.155 2000.000 0.000 -0.648
10 250.00 1200.00 448 577 2 5.155 2000.000 0.000 -0.648
11 275.00 1200.00 423 577 5 5.155 2000.000 0.000 -0.648
12 300.00 1200.00 405 675 1 5.155 2000.000 0.000 -0.648
13 325.00 1200.00 423 739 7 5.155 2000.000 0.000 -0.648
14 350.00 1200.00 467 889 0 5.155 2000.000 0.000 -0.648
15 375.00 1200.00 469 875 2 5.155 2000.000 0.000 -0.648
16 400.00 1200.00 419 867 2 5.155 2000.000 0.000 -0.648
17 425.00 1200.00 323 859 3 5.155 2000.000 0.000 -0.648
18 450.00 1200.00 210 895 0 5.155 2000.000 0.000 -0.648
19 475.00 1200.00 153 917 3 5.155 2000.000 0.000 -0.648
20 500.00 1200.00 173 889 4 5.155 2000.000 0.000 -0.648
21 525.00 1200.00 171 809 4 5.155 2000.000 0.000 -0.648
22 550.00 1200.00 193 702 1 5.155 2000.000 0.000 -0.648
23 575.00 1200.00 161 651 2 5.155 2000.000 0.000 -0.648
24 600.00 1200.00 171 579 3 5.155 2000.000 0.000 -0.648
25 625.00 1200.00 212 598 4 5.155 2000.000 0.000 -0.648
26 650.00 1200.00 260 614 2 5.155 2000.000 0.000 -0.648
27 675.00 1200.00 403 668 2 5.155 2000.000 0.000 -0.648
28 700.00 1200.00 481 691 4 5.155 2000.000 0.000 -0.648
29 725.00 1200.00 487 553 4 5.155 2000.000 0.000 -0.648
30 750.00 1200.00 494 563 3 5.155 2000.000 0.000 -0.648
31 775.00 1200.00 414 556 1 5.155 2000.000 0.000 -0.648
32 800.00 1200.00 387 681 2 5.155 2000.000 0.000 -0.648
33 825.00 1200.00 460 774 0 5.155 2000.000 0.000 -0.648
34 850.00 1200.00 487 854 4 5.155 2000.000 0.000 -0.648
35 875.00 1200.00 434 920 4 5.155 2000.000 0.000 -0.648
36 900.00 1200.00 431 856 3 5.155 2000.000 0.000 -0.648
37 925.00 1200.00 318 910 3 5.155 2000.000 0.000 -0.648
38 950.00 1200.00 209 877 1 5.155 2000.000 0.000 -0.648
39 975.00 1200.00 142 879 1 5.155 2000.000 0.000 -0.648
