# BinNR microsec tot-time (s)  O-Beam H-beam AUX Ampl(V) f(Hz) phase(deg) chi(pos)
0 0.00 1200.00 153 846 3 5.155 2000.000 0.000 1.351
1 25.00 1200.00 160 824 5 5.155 2000.000 0.000 1.351
2 50.00 1200.00 146 684 3 5.155 2000.000 0.000 1.351
3 75.00 1200.00 158 565 2 5.155 2000.000 0.000 1.351
4 100.00 1200.00 182 600 2 5.155 2000.000 0.000 1.351
5 125.00 1200.00 225 595 1 5.155 2000.000 0.000 1.351
6 150.00 1200.00 303 707 5 5.155 2000.000 0.000 1.351
7 175.00 1200.00 422 706 4 5.155 2000.000 0.000 1.351
8 200.00 1200.00 443 710 1 5.155 2000.000 0.000 1.351
9 225.00 1200.00 474 608 1 5.155 2000.000 0.000 1.351
10 250.00 1200.00 391 549 7 5.155 2000.000 0.000 1.351
11 275.00 1200.00 364 580 1 5.155 2000.000 0.000 1.351
12 300.00 1200.00 355 645 6 5.155 2000.000 0.000 1.351
13 325.00 1200.00 419 793 1 5.155 2000.000 0.000 1.351
14 350.00 1200.00 431 823 3 5.155 2000.000 0.000 1.351
15 375.00 1200.00 478 885 3 5.155 2000.000 0.000 1.351
16 400.00 1200.00 434 846 3 5.155 2000.000 0.000 1.351
17 425.00 1200.00 383 877 2 5.155 2000.000 0.000 1.351
18 450.00 1200.00 249 844 1 5.155 2000.000 0.000 1.351
19 475.00 1200.00 186 904 0 5.155 2000.000 0.000 1.351
20 500.00 1200.00 163 810 4 5.155 2000.000 0.000 1.351
21 525.00 1200.00 164 728 3 5.155 2000.000 0.000 1.351
22 550.00 1200.00 160 659 3 5.155 2000.000 0.000 1.351
23 575.00 1200.00 148 625 1 5.155 2000.000 0.000 1.351
24 600.00 1200.00 167 558 1 5.155 2000.000 0.000 1.351
25 625.00 1200.00 219 612 3 5.155 2000.000 0.000 1.351
26 650.00 1200.00 295 680 4 5.155 2000.000 0.000 1.351
27 675.00 1200.00 430 658 2 5.155 2000.000 0.000 1.351
28 700.00 1200.00 482 647 1 5.155 2000.000 0.000 1.351
29 725.00 1200.00 471 598 6 5.155 2000.000 0.000 1.351
30 750.00 1200.00 420 607 2 5.155 2000.000 0.000 1.351
31 775.00 1200.00 368 545 5 5.155 2000.000 0.000 1.351
32 800.00 1200.00 359 629 2 5.155 2000.000 0.000 1.351
33 825.00 1200.00 372 722 5 5.155 2000.000 0.000 1.351
34 850.00 1200.00 435 840 2 5.155 2000.000 0.000 1.351
35 875.00 1200.00 491 863 4 5.155 2000.000 0.000 1.351
36 900.00 1200.00 488 881 3 5.155 2000.000 0.000 1.351
37 925.00 1200.00 376 929 3 5.155 2000.000 0.000 1.351
38 950.00 1200.00 247 910 6 5.155 2000.000 0.000 1.351
39 975.00 1200.00 187 894 4 5.155 2000.000 0.000 1.351
