# BinNR microsec tot-time (s)  O-Beam H-beam AUX Ampl(V) f(Hz) phase(deg) chi(pos)
0 0.00 1200.00 355 568 3 5.155 2000.000 0.000 -1.373
1 25.00 1200.00 332 575 1 5.155 2000.000 0.000 -1.373
2 50.00 1200.00 303 584 1 5.155 2000.000 0.000 -1.373
3 75.00 1200.00 352 687 2 5.155 2000.000 0.000 -1.373
4 100.00 1200.00 386 844 2 5.155 2000.000 0.000 -1.373
5 125.00 1200.00 459 845 3 5.155 2000.000 0.000 -1.373
6 150.00 1200.00 491 870 1 5.155 2000.000 0.000 -1.373
7 175.00 1200.00 424 908 1 5.155 2000.000 0.000 -1.373
8 200.00 1200.00 308 941 4 5.155 2000.000 0.000 -1.373
9 225.00 1200.00 193 873 0 5.155 2000.000 0.000 -1.373
10 250.00 1200.00 134 834 3 5.155 2000.000 0.000 -1.373
11 275.00 1200.00 167 771 1 5.155 2000.000 0.000 -1.373
12 300.00 1200.00 149 572 1 5.155 2000.000 0.000 -1.373
13 325.00 1200.00 150 555 6 5.155 2000.000 0.000 -1.373
14 350.00 1200.00 196 628 0 5.155 2000.000 0.000 -1.373
15 375.00 1200.00 236 639 1 5.155 2000.000 0.000 -1.373
16 400.00 1200.00 356 713 3 5.155 2000.000 0.000 -1.373
17 425.00 1200.00 432 712 1 5.155 2000.000 0.000 -1.373
18 450.00 1200.00 499 705 2 5.155 2000.000 0.000 -1.373
19 475.00 1200.00 421 678 2 5.155 2000.000 0.000 -1.373
20 500.00 1200.00 365 609 4 5.155 2000.000 0.000 -1.373
21 525.00 1200.00 357 577 1 5.155 2000.000 0.000 -1.373
22 550.00 1200.00 316 631 4 5.155 2000.000 0.000 -1.373
23 575.00 1200.00 364 721 2 5.155 2000.000 0.000 -1.373
24 600.00 1200.00 380 811 6 5.155 2000.000 0.000 -1.373
25 625.00 1200.00 436 908 3 5.155 2000.000 0.000 -1.373
26 650.00 1200.00 458 895 5 5.155 2000.000 0.000 -1.373
27 675.00 1200.00 392 885 4 5.155 2000.000 0.000 -1.373
28 700.00 1200.00 294 897 2 5.155 2000.000 0.000 -1.373
29 725.00 1200.00 203 939 4 5.155 2000.000 0.000 -1.373
30 750.00 1200.00 156 791 2 5.155 2000.000 0.000 -1.373
31 775.00 1200.00 154 733 4 5.155 2000.000 0.000 -1.373
32 800.00 1200.00 143 653 5 5.155 2000.000 0.000 -1.373
33 825.00 1200.00 151 551 4 5.155 2000.000 0.000 -1.373
34 850.00 1200.00 207 568 4 5.155 2000.000 0.000 -1.373
35 875.00 1200.00 241 638 1 5.155 2000.000 0.000 -1.373
36 900.00 1200.00 364 679 2 5.155 2000.000 0.000 -1.373
37 925.00 1200.00 422 733 2 5.155 2000.000 0.000 -1.373
38 950.00 1200.00 505 716 3 5.155 2000.000 0.000 -1.373
39 975.00 1200.00 462 684 3 5.155 2000.000 0.000 -1.373
