# BinNR microsec tot-time (s)  O-Beam H-beam AUX Ampl(V) f(Hz) phase(deg) chi(pos)
0 0.00 1200.00 147 1004 2 5.313 2000.000 0.000 1.505
1 25.00 1200.00 169 991 4 5.313 2000.000 0.000 1.505
2 50.00 1200.00 171 868 3 5.313 2000.000 0.000 1.505
3 75.00 1200.00 145 664 2 5.313 2000.000 0.000 1.505
4 100.00 1200.00 132 573 2 5.313 2000.000 0.000 1.505
5 125.00 1200.00 158 551 4 5.313 2000.000 0.000 1.505
6 150.00 1200.00 222 589 1 5.313 2000.000 0.000 1.505
7 175.00 1200.00 390 677 4 5.313 2000.000 0.000 1.505
8 200.00 1200.00 537 642 1 5.313 2000.000 0.000 1.505
9 225.00 1200.00 587 651 5 5.313 2000.000 0.000 1.505
10 250.00 1200.00 608 549 2 5.313 2000.000 0.000 1.505
11 275.00 1200.00 576 526 3 5.313 2000.000 0.000 1.505
12 300.00 1200.00 511 679 5 5.313 2000.000 0.000 1.505
13 325.00 1200.00 533 885 1 5.313 2000.000 0.000 1.505
14 350.00 1200.00 594 965 2 5.313 2000.000 0.000 1.505
15 375.00 1200.00 636 1046 2 5.313 2000.000 0.000 1.505
16 400.00 1200.00 593 1020 3 5.313 2000.000 0.000 1.505
17 425.00 1200.00 414 1024 5 5.313 2000.000 0.000 1.505
18 450.00 1200.00 279 1007 3 5.313 2000.000 0.000 1.505
19 475.00 1200.00 150 993 3 5.313 2000.000 0.000 1.505
20 500.00 1200.00 134 1111 1 5.313 2000.000 0.000 1.505
21 525.00 1200.00 142 1021 3 5.313 2000.000 0.000 1.505
22 550.00 1200.00 189 884 1 5.313 2000.000 0.000 1.505
23 575.00 1200.00 181 687 1 5.313 2000.000 0.000 1.505
24 600.00 1200.00 146 616 2 5.313 2000.000 0.000 1.505
25 625.00 1200.00 142 598 4 5.313 2000.000 0.000 1.505
26 650.00 1200.00 245 575 2 5.313 2000.000 0.000 1.505
27 675.00 1200.00 425 637 5 5.313 2000.000 0.000 1.505
28 700.00 1200.00 509 618 2 5.313 2000.000 0.000 1.505
29 725.00 1200.00 611 636 1 5.313 2000.000 0.000 1.505
30 750.00 1200.00 553 548 5 5.313 2000.000 0.000 1.505
31 775.00 1200.00 550 540 4 5.313 2000.000 0.000 1.505
32 800.00 1200.00 469 723 8 5.313 2000.000 0.000 1.505
33 825.00 1200.00 557 805 2 5.313 2000.000 0.000 1.505
34 850.00 1200.00 571 1007 2 5.313 2000.000 0.000 1.505
35 875.00 1200.00 612 1059 3 5.313 2000.000 0.000 1.505
36 900.00 1200.00 583 1021 1 5.313 2000.000 0.000 1.505
37 925.00 1200.00 420 1027 2 5.313 2000.000 0.000 1.505
38 950.00 1200.00 252 996 5 5.313 2000.000 0.000 1.505
39 975.00 1200.00 180 1022 3 5.313 2000.000 0.000 1.505
