# BinNR microsec tot-time (s)  O-Beam AUX Ampl(V) f(Hz) phase(deg) chi(pos)
0 0.00 1500.01 108 341 1.000 10000.000 0.000 -1.505
1 3.00 1500.01 240 644 1.000 10000.000 0.000 -1.505
2 6.00 1500.01 217 631 1.000 10000.000 0.000 -1.505
3 9.00 1500.01 254 688 1.000 10000.000 0.000 -1.505
4 12.00 1500.01 222 694 1.000 10000.000 0.000 -1.505
5 15.00 1500.01 228 654 1.000 10000.000 0.000 -1.505
6 18.00 1500.01 254 700 1.000 10000.000 0.000 -1.505
7 21.00 1500.01 215 656 1.000 10000.000 0.000 -1.505
8 24.00 1500.01 255 700 1.000 10000.000 0.000 -1.505
9 27.00 1500.01 242 656 1.000 10000.000 0.000 -1.505
10 30.00 1500.01 252 659 1.000 10000.000 0.000 -1.505
11 33.00 1500.01 216 610 1.000 10000.000 0.000 -1.505
12 36.00 1500.01 227 646 1.000 10000.000 0.000 -1.505
13 39.00 1500.01 210 638 1.000 10000.000 0.000 -1.505
14 42.00 1500.01 251 624 1.000 10000.000 0.000 -1.505
15 45.00 1500.01 203 617 1.000 10000.000 0.000 -1.505
16 48.00 1500.01 241 600 1.000 10000.000 0.000 -1.505
17 51.00 1500.01 198 687 1.000 10000.000 0.000 -1.505
18 54.00 1500.01 207 622 1.000 10000.000 0.000 -1.505
19 57.00 1500.01 213 630 1.000 10000.000 0.000 -1.505
20 60.00 1500.01 223 632 1.000 10000.000 0.000 -1.505
21 63.00 1500.01 225 651 1.000 10000.000 0.000 -1.505
22 66.00 1500.01 267 621 1.000 10000.000 0.000 -1.505
23 69.00 1500.01 203 679 1.000 10000.000 0.000 -1.505
24 72.00 1500.01 218 687 1.000 10000.000 0.000 -1.505
25 75.00 1500.01 228 677 1.000 10000.000 0.000 -1.505
26 78.00 1500.01 238 683 1.000 10000.000 0.000 -1.505
27 81.00 1500.01 215 624 1.000 10000.000 0.000 -1.505
28 84.00 1500.01 256 710 1.000 10000.000 0.000 -1.505
29 87.00 1500.01 233 658 1.000 10000.000 0.000 -1.505
30 90.00 1500.01 244 659 1.000 10000.000 0.000 -1.505
31 93.00 1500.01 231 713 1.000 10000.000 0.000 -1.505
32 96.00 1500.01 233 681 1.000 10000.000 0.000 -1.505
33 99.00 1500.01 213 675 1.000 10000.000 0.000 -1.505
34 102.00 1500.01 258 672 1.000 10000.000 0.000 -1.505
35 105.00 1500.01 227 657 1.000 10000.000 0.000 -1.505
36 108.00 1500.01 225 701 1.000 10000.000 0.000 -1.505
37 111.00 1500.01 237 719 1.000 10000.000 0.000 -1.505
38 114.00 1500.01 239 686 1.000 10000.000 0.000 -1.505
39 117.00 1500.01 212 615 1.000 10000.000 0.000 -1.505
40 120.00 1500.01 259 678 1.000 10000.000 0.000 -1.505
41 123.00 1500.01 245 694 1.000 10000.000 0.000 -1.505
42 126.00 1500.01 241 664 1.000 10000.000 0.000 -1.505
43 129.00 1500.01 225 638 1.000 10000.000 0.000 -1.505
44 132.00 1500.01 218 627 1.000 10000.000 0.000 -1.505
45 135.00 1500.01 224 637 1.000 10000.000 0.000 -1.505
46 138.00 1500.01 234 640 1.000 10000.000 0.000 -1.505
47 141.00 1500.01 228 606 1.000 10000.000 0.000 -1.505
48 144.00 1500.01 211 639 1.000 10000.000 0.000 -1.505
49 147.00 1500.01 245 663 1.000 10000.000 0.000 -1.505
50 150.00 1500.01 254 648 1.000 10000.000 0.000 -1.505
51 153.00 1500.01 222 615 1.000 10000.000 0.000 -1.505
52 156.00 1500.01 217 639 1.000 10000.000 0.000 -1.505
53 159.00 1500.01 245 613 1.000 10000.000 0.000 -1.505
54 162.00 1500.01 251 628 1.000 10000.000 0.000 -1.505
55 165.00 1500.01 255 639 1.000 10000.000 0.000 -1.505
56 168.00 1500.01 209 621 1.000 10000.000 0.000 -1.505
57 171.00 1500.01 218 623 1.000 10000.000 0.000 -1.505
58 174.00 1500.01 224 692 1.000 10000.000 0.000 -1.505
59 177.00 1500.01 228 713 1.000 10000.000 0.000 -1.505
60 180.00 1500.01 254 671 1.000 10000.000 0.000 -1.505
61 183.00 1500.01 254 667 1.000 10000.000 0.000 -1.505
62 186.00 1500.01 238 696 1.000 10000.000 0.000 -1.505
63 189.00 1500.01 223 684 1.000 10000.000 0.000 -1.505
64 192.00 1500.01 255 755 1.000 10000.000 0.000 -1.505
65 195.00 1500.01 209 707 1.000 10000.000 0.000 -1.505
66 198.00 1500.01 243 725 1.000 10000.000 0.000 -1.505
67 201.00 1500.01 215 665 1.000 10000.000 0.000 -1.505
68 204.00 1500.01 270 691 1.000 10000.000 0.000 -1.505
69 207.00 1500.01 227 656 1.000 10000.000 0.000 -1.505
70 210.00 1500.01 253 689 1.000 10000.000 0.000 -1.505
71 213.00 1500.01 233 694 1.000 10000.000 0.000 -1.505
72 216.00 1500.01 227 662 1.000 10000.000 0.000 -1.505
73 219.00 1500.01 236 727 1.000 10000.000 0.000 -1.505
74 222.00 1500.01 239 683 1.000 10000.000 0.000 -1.505
75 225.00 1500.01 229 658 1.000 10000.000 0.000 -1.505
76 228.00 1500.01 245 672 1.000 10000.000 0.000 -1.505
77 231.00 1500.01 246 655 1.000 10000.000 0.000 -1.505
78 234.00 1500.01 228 674 1.000 10000.000 0.000 -1.505
79 237.00 1500.01 220 637 1.000 10000.000 0.000 -1.505
80 240.00 1500.01 197 671 1.000 10000.000 0.000 -1.505
81 243.00 1500.01 213 613 1.000 10000.000 0.000 -1.505
82 246.00 1500.01 218 676 1.000 10000.000 0.000 -1.505
83 249.00 1500.01 238 642 1.000 10000.000 0.000 -1.505
84 252.00 1500.01 239 638 1.000 10000.000 0.000 -1.505
85 255.00 1500.01 232 607 1.000 10000.000 0.000 -1.505
86 258.00 1500.01 224 578 1.000 10000.000 0.000 -1.505
87 261.00 1500.01 240 644 1.000 10000.000 0.000 -1.505
88 264.00 1500.01 219 605 1.000 10000.000 0.000 -1.505
89 267.00 1500.01 229 632 1.000 10000.000 0.000 -1.505
90 270.00 1500.01 271 633 1.000 10000.000 0.000 -1.505
91 273.00 1500.01 240 659 1.000 10000.000 0.000 -1.505
92 276.00 1500.01 231 705 1.000 10000.000 0.000 -1.505
93 279.00 1500.01 233 700 1.000 10000.000 0.000 -1.505
94 282.00 1500.01 232 664 1.000 10000.000 0.000 -1.505
95 285.00 1500.01 245 642 1.000 10000.000 0.000 -1.505
96 288.00 1500.01 240 697 1.000 10000.000 0.000 -1.505
97 291.00 1500.01 230 722 1.000 10000.000 0.000 -1.505
98 294.00 1500.01 208 676 1.000 10000.000 0.000 -1.505
99 297.00 1500.01 220 675 1.000 10000.000 0.000 -1.505
100 300.00 1500.01 241 662 1.000 10000.000 0.000 -1.505
101 303.00 1500.01 260 703 1.000 10000.000 0.000 -1.505
102 306.00 1500.01 228 685 1.000 10000.000 0.000 -1.505
103 309.00 1500.01 228 635 1.000 10000.000 0.000 -1.505
104 312.00 1500.01 243 680 1.000 10000.000 0.000 -1.505
105 315.00 1500.01 209 672 1.000 10000.000 0.000 -1.505
106 318.00 1500.01 233 665 1.000 10000.000 0.000 -1.505
107 321.00 1500.01 202 670 1.000 10000.000 0.000 -1.505
108 324.00 1500.01 237 695 1.000 10000.000 0.000 -1.505
109 327.00 1500.01 225 636 1.000 10000.000 0.000 -1.505
110 330.00 1500.01 245 591 1.000 10000.000 0.000 -1.505
111 333.00 1500.01 233 648 1.000 10000.000 0.000 -1.505
112 336.00 1500.01 236 618 1.000 10000.000 0.000 -1.505
113 339.00 1500.01 209 622 1.000 10000.000 0.000 -1.505
114 342.00 1500.01 205 645 1.000 10000.000 0.000 -1.505
115 345.00 1500.01 235 610 1.000 10000.000 0.000 -1.505
116 348.00 1500.01 237 578 1.000 10000.000 0.000 -1.505
117 351.00 1500.01 256 623 1.000 10000.000 0.000 -1.505
118 354.00 1500.01 236 637 1.000 10000.000 0.000 -1.505
119 357.00 1500.01 228 641 1.000 10000.000 0.000 -1.505
120 360.00 1500.01 242 607 1.000 10000.000 0.000 -1.505
121 363.00 1500.01 259 672 1.000 10000.000 0.000 -1.505
122 366.00 1500.01 200 685 1.000 10000.000 0.000 -1.505
123 369.00 1500.01 236 596 1.000 10000.000 0.000 -1.505
124 372.00 1500.01 232 611 1.000 10000.000 0.000 -1.505
125 375.00 1500.01 217 641 1.000 10000.000 0.000 -1.505
126 378.00 1500.01 236 707 1.000 10000.000 0.000 -1.505
127 381.00 1500.01 239 721 1.000 10000.000 0.000 -1.505
128 384.00 1500.01 238 649 1.000 10000.000 0.000 -1.505
129 387.00 1500.01 249 725 1.000 10000.000 0.000 -1.505
130 390.00 1500.01 264 644 1.000 10000.000 0.000 -1.505
131 393.00 1500.01 225 659 1.000 10000.000 0.000 -1.505
132 396.00 1500.01 235 674 1.000 10000.000 0.000 -1.505
133 399.00 1500.01 246 688 1.000 10000.000 0.000 -1.505
134 402.00 1500.01 237 662 1.000 10000.000 0.000 -1.505
