# BinNR microsec tot-time (s)  O-Beam AUX Ampl(V) f(Hz) phase(deg) chi(pos)
0 0.00 1500.00 95 237 1.000 10000.000 0.000 0.989
1 3.00 1500.00 197 390 1.000 10000.000 0.000 0.989
2 6.00 1500.00 183 429 1.000 10000.000 0.000 0.989
3 9.00 1500.00 192 422 1.000 10000.000 0.000 0.989
4 12.00 1500.00 183 446 1.000 10000.000 0.000 0.989
5 15.00 1500.00 151 425 1.000 10000.000 0.000 0.989
6 18.00 1500.00 183 374 1.000 10000.000 0.000 0.989
7 21.00 1500.00 173 371 1.000 10000.000 0.000 0.989
8 24.00 1500.00 179 374 1.000 10000.000 0.000 0.989
9 27.00 1500.00 156 377 1.000 10000.000 0.000 0.989
10 30.00 1500.00 177 356 1.000 10000.000 0.000 0.989
11 33.00 1500.00 157 343 1.000 10000.000 0.000 0.989
12 36.00 1500.00 149 335 1.000 10000.000 0.000 0.989
13 39.00 1500.00 145 330 1.000 10000.000 0.000 0.989
14 42.00 1500.00 161 355 1.000 10000.000 0.000 0.989
15 45.00 1500.00 149 329 1.000 10000.000 0.000 0.989
16 48.00 1500.00 149 337 1.000 10000.000 0.000 0.989
17 51.00 1500.00 156 332 1.000 10000.000 0.000 0.989
18 54.00 1500.00 170 368 1.000 10000.000 0.000 0.989
19 57.00 1500.00 142 303 1.000 10000.000 0.000 0.989
20 60.00 1500.00 161 356 1.000 10000.000 0.000 0.989
21 63.00 1500.00 163 375 1.000 10000.000 0.000 0.989
22 66.00 1500.00 194 396 1.000 10000.000 0.000 0.989
23 69.00 1500.00 156 400 1.000 10000.000 0.000 0.989
24 72.00 1500.00 162 401 1.000 10000.000 0.000 0.989
25 75.00 1500.00 158 397 1.000 10000.000 0.000 0.989
26 78.00 1500.00 192 406 1.000 10000.000 0.000 0.989
27 81.00 1500.00 177 415 1.000 10000.000 0.000 0.989
28 84.00 1500.00 189 452 1.000 10000.000 0.000 0.989
29 87.00 1500.00 185 421 1.000 10000.000 0.000 0.989
30 90.00 1500.00 183 457 1.000 10000.000 0.000 0.989
31 93.00 1500.00 187 445 1.000 10000.000 0.000 0.989
32 96.00 1500.00 196 508 1.000 10000.000 0.000 0.989
33 99.00 1500.00 181 479 1.000 10000.000 0.000 0.989
34 102.00 1500.00 197 465 1.000 10000.000 0.000 0.989
35 105.00 1500.00 189 420 1.000 10000.000 0.000 0.989
36 108.00 1500.00 198 481 1.000 10000.000 0.000 0.989
37 111.00 1500.00 179 449 1.000 10000.000 0.000 0.989
38 114.00 1500.00 174 412 1.000 10000.000 0.000 0.989
39 117.00 1500.00 192 382 1.000 10000.000 0.000 0.989
40 120.00 1500.00 175 418 1.000 10000.000 0.000 0.989
41 123.00 1500.00 167 370 1.000 10000.000 0.000 0.989
42 126.00 1500.00 165 336 1.000 10000.000 0.000 0.989
43 129.00 1500.00 168 392 1.000 10000.000 0.000 0.989
44 132.00 1500.00 162 341 1.000 10000.000 0.000 0.989
45 135.00 1500.00 160 278 1.000 10000.000 0.000 0.989
46 138.00 1500.00 162 298 1.000 10000.000 0.000 0.989
47 141.00 1500.00 142 333 1.000 10000.000 0.000 0.989
48 144.00 1500.00 163 303 1.000 10000.000 0.000 0.989
49 147.00 1500.00 180 313 1.000 10000.000 0.000 0.989
50 150.00 1500.00 170 363 1.000 10000.000 0.000 0.989
51 153.00 1500.00 128 334 1.000 10000.000 0.000 0.989
52 156.00 1500.00 150 317 1.000 10000.000 0.000 0.989
53 159.00 1500.00 174 317 1.000 10000.000 0.000 0.989
54 162.00 1500.00 154 348 1.000 10000.000 0.000 0.989
55 165.00 1500.00 181 349 1.000 10000.000 0.000 0.989
56 168.00 1500.00 169 370 1.000 10000.000 0.000 0.989
57 171.00 1500.00 176 386 1.000 10000.000 0.000 0.989
58 174.00 1500.00 172 389 1.000 10000.000 0.000 0.989
59 177.00 1500.00 171 403 1.000 10000.000 0.000 0.989
60 180.00 1500.00 172 443 1.000 10000.000 0.000 0.989
61 183.00 1500.00 197 461 1.000 10000.000 0.000 0.989
62 186.00 1500.00 208 447 1.000 10000.000 0.000 0.989
63 189.00 1500.00 198 452 1.000 10000.000 0.000 0.989
64 192.00 1500.00 185 488 1.000 10000.000 0.000 0.989
65 195.00 1500.00 203 455 1.000 10000.000 0.000 0.989
66 198.00 1500.00 192 429 1.000 10000.000 0.000 0.989
67 201.00 1500.00 188 461 1.000 10000.000 0.000 0.989
68 204.00 1500.00 194 474 1.000 10000.000 0.000 0.989
69 207.00 1500.00 202 432 1.000 10000.000 0.000 0.989
70 210.00 1500.00 204 430 1.000 10000.000 0.000 0.989
71 213.00 1500.00 168 429 1.000 10000.000 0.000 0.989
72 216.00 1500.00 156 462 1.000 10000.000 0.000 0.989
73 219.00 1500.00 146 424 1.000 10000.000 0.000 0.989
74 222.00 1500.00 178 369 1.000 10000.000 0.000 0.989
75 225.00 1500.00 176 410 1.000 10000.000 0.000 0.989
76 228.00 1500.00 157 379 1.000 10000.000 0.000 0.989
77 231.00 1500.00 163 352 1.000 10000.000 0.000 0.989
78 234.00 1500.00 177 322 1.000 10000.000 0.000 0.989
79 237.00 1500.00 153 355 1.000 10000.000 0.000 0.989
80 240.00 1500.00 165 366 1.000 10000.000 0.000 0.989
81 243.00 1500.00 143 353 1.000 10000.000 0.000 0.989
82 246.00 1500.00 172 318 1.000 10000.000 0.000 0.989
83 249.00 1500.00 164 316 1.000 10000.000 0.000 0.989
84 252.00 1500.00 164 354 1.000 10000.000 0.000 0.989
85 255.00 1500.00 156 347 1.000 10000.000 0.000 0.989
86 258.00 1500.00 186 317 1.000 10000.000 0.000 0.989
87 261.00 1500.00 148 335 1.000 10000.000 0.000 0.989
88 264.00 1500.00 182 364 1.000 10000.000 0.000 0.989
89 267.00 1500.00 190 345 1.000 10000.000 0.000 0.989
90 270.00 1500.00 183 362 1.000 10000.000 0.000 0.989
91 273.00 1500.00 172 400 1.000 10000.000 0.000 0.989
92 276.00 1500.00 169 427 1.000 10000.000 0.000 0.989
93 279.00 1500.00 169 407 1.000 10000.000 0.000 0.989
94 282.00 1500.00 190 479 1.000 10000.000 0.000 0.989
95 285.00 1500.00 182 418 1.000 10000.000 0.000 0.989
96 288.00 1500.00 169 456 1.000 10000.000 0.000 0.989
97 291.00 1500.00 190 412 1.000 10000.000 0.000 0.989
98 294.00 1500.00 186 497 1.000 10000.000 0.000 0.989
99 297.00 1500.00 190 446 1.000 10000.000 0.000 0.989
100 300.00 1500.00 194 430 1.000 10000.000 0.000 0.989
101 303.00 1500.00 202 484 1.000 10000.000 0.000 0.989
102 306.00 1500.00 181 465 1.000 10000.000 0.000 0.989
103 309.00 1500.00 194 410 1.000 10000.000 0.000 0.989
104 312.00 1500.00 199 449 1.000 10000.000 0.000 0.989
105 315.00 1500.00 178 442 1.000 10000.000 0.000 0.989
106 318.00 1500.00 165 429 1.000 10000.000 0.000 0.989
107 321.00 1500.00 190 365 1.000 10000.000 0.000 0.989
108 324.00 1500.00 189 404 1.000 10000.000 0.000 0.989
109 327.00 1500.00 148 360 1.000 10000.000 0.000 0.989
110 330.00 1500.00 166 339 1.000 10000.000 0.000 0.989
111 333.00 1500.00 145 330 1.000 10000.000 0.000 0.989
112 336.00 1500.00 170 340 1.000 10000.000 0.000 0.989
113 339.00 1500.00 136 350 1.000 10000.000 0.000 0.989
114 342.00 1500.00 175 335 1.000 10000.000 0.000 0.989
115 345.00 1500.00 143 286 1.000 10000.000 0.000 0.989
116 348.00 1500.00 132 311 1.000 10000.000 0.000 0.989
117 351.00 1500.00 169 315 1.000 10000.000 0.000 0.989
118 354.00 1500.00 166 351 1.000 10000.000 0.000 0.989
119 357.00 1500.00 159 345 1.000 10000.000 0.000 0.989
120 360.00 1500.00 154 375 1.000 10000.000 0.000 0.989
121 363.00 1500.00 171 369 1.000 10000.000 0.000 0.989
122 366.00 1500.00 184 346 1.000 10000.000 0.000 0.989
123 369.00 1500.00 163 369 1.000 10000.000 0.000 0.989
124 372.00 1500.00 168 373 1.000 10000.000 0.000 0.989
125 375.00 1500.00 188 395 1.000 10000.000 0.000 0.989
126 378.00 1500.00 162 448 1.000 10000.000 0.000 0.989
127 381.00 1500.00 192 432 1.000 10000.000 0.000 0.989
128 384.00 1500.00 202 468 1.000 10000.000 0.000 0.989
129 387.00 1500.00 191 491 1.000 10000.000 0.000 0.989
130 390.00 1500.00 204 445 1.000 10000.000 0.000 0.989
131 393.00 1500.00 179 452 1.000 10000.000 0.000 0.989
132 396.00 1500.00 188 463 1.000 10000.000 0.000 0.989
133 399.00 1500.00 180 473 1.000 10000.000 0.000 0.989
134 402.00 1500.00 163 464 1.000 10000.000 0.000 0.989
