# BinNR microsec tot-time (s)  O-Beam AUX Ampl(V) f(Hz) phase(deg) chi(pos)
0 0.00 1500.01 73 162 1.000 10000.000 0.000 -0.824
1 3.00 1500.01 139 304 1.000 10000.000 0.000 -0.824
2 6.00 1500.01 160 317 1.000 10000.000 0.000 -0.824
3 9.00 1500.01 138 276 1.000 10000.000 0.000 -0.824
4 12.00 1500.01 136 284 1.000 10000.000 0.000 -0.824
5 15.00 1500.01 144 257 1.000 10000.000 0.000 -0.824
6 18.00 1500.01 131 256 1.000 10000.000 0.000 -0.824
7 21.00 1500.01 115 251 1.000 10000.000 0.000 -0.824
8 24.00 1500.01 139 255 1.000 10000.000 0.000 -0.824
9 27.00 1500.01 129 220 1.000 10000.000 0.000 -0.824
10 30.00 1500.01 132 220 1.000 10000.000 0.000 -0.824
11 33.00 1500.01 138 231 1.000 10000.000 0.000 -0.824
12 36.00 1500.01 121 229 1.000 10000.000 0.000 -0.824
13 39.00 1500.01 131 211 1.000 10000.000 0.000 -0.824
14 42.00 1500.01 110 242 1.000 10000.000 0.000 -0.824
15 45.00 1500.01 124 226 1.000 10000.000 0.000 -0.824
16 48.00 1500.01 135 210 1.000 10000.000 0.000 -0.824
17 51.00 1500.01 126 242 1.000 10000.000 0.000 -0.824
18 54.00 1500.01 105 218 1.000 10000.000 0.000 -0.824
19 57.00 1500.01 125 241 1.000 10000.000 0.000 -0.824
20 60.00 1500.01 127 227 1.000 10000.000 0.000 -0.824
21 63.00 1500.01 132 252 1.000 10000.000 0.000 -0.824
22 66.00 1500.01 128 241 1.000 10000.000 0.000 -0.824
23 69.00 1500.01 132 261 1.000 10000.000 0.000 -0.824
24 72.00 1500.01 136 246 1.000 10000.000 0.000 -0.824
25 75.00 1500.01 124 262 1.000 10000.000 0.000 -0.824
26 78.00 1500.01 144 314 1.000 10000.000 0.000 -0.824
27 81.00 1500.01 137 282 1.000 10000.000 0.000 -0.824
28 84.00 1500.01 154 314 1.000 10000.000 0.000 -0.824
29 87.00 1500.01 146 316 1.000 10000.000 0.000 -0.824
30 90.00 1500.01 167 287 1.000 10000.000 0.000 -0.824
31 93.00 1500.01 126 303 1.000 10000.000 0.000 -0.824
32 96.00 1500.01 143 289 1.000 10000.000 0.000 -0.824
33 99.00 1500.01 142 326 1.000 10000.000 0.000 -0.824
34 102.00 1500.01 147 331 1.000 10000.000 0.000 -0.824
35 105.00 1500.01 141 331 1.000 10000.000 0.000 -0.824
36 108.00 1500.01 138 282 1.000 10000.000 0.000 -0.824
37 111.00 1500.01 137 271 1.000 10000.000 0.000 -0.824
38 114.00 1500.01 152 315 1.000 10000.000 0.000 -0.824
39 117.00 1500.01 126 280 1.000 10000.000 0.000 -0.824
40 120.00 1500.01 126 261 1.000 10000.000 0.000 -0.824
41 123.00 1500.01 119 232 1.000 10000.000 0.000 -0.824
42 126.00 1500.01 125 297 1.000 10000.000 0.000 -0.824
43 129.00 1500.01 142 230 1.000 10000.000 0.000 -0.824
44 132.00 1500.01 131 233 1.000 10000.000 0.000 -0.824
45 135.00 1500.01 121 229 1.000 10000.000 0.000 -0.824
46 138.00 1500.01 124 207 1.000 10000.000 0.000 -0.824
47 141.00 1500.01 143 250 1.000 10000.000 0.000 -0.824
48 144.00 1500.01 122 217 1.000 10000.000 0.000 -0.824
49 147.00 1500.01 128 260 1.000 10000.000 0.000 -0.824
50 150.00 1500.01 135 239 1.000 10000.000 0.000 -0.824
51 153.00 1500.01 130 215 1.000 10000.000 0.000 -0.824
52 156.00 1500.01 123 246 1.000 10000.000 0.000 -0.824
53 159.00 1500.01 134 242 1.000 10000.000 0.000 -0.824
54 162.00 1500.01 135 244 1.000 10000.000 0.000 -0.824
55 165.00 1500.01 138 238 1.000 10000.000 0.000 -0.824
56 168.00 1500.01 130 256 1.000 10000.000 0.000 -0.824
57 171.00 1500.01 110 276 1.000 10000.000 0.000 -0.824
58 174.00 1500.01 142 281 1.000 10000.000 0.000 -0.824
59 177.00 1500.01 142 247 1.000 10000.000 0.000 -0.824
60 180.00 1500.01 164 292 1.000 10000.000 0.000 -0.824
61 183.00 1500.01 138 290 1.000 10000.000 0.000 -0.824
62 186.00 1500.01 171 312 1.000 10000.000 0.000 -0.824
63 189.00 1500.01 145 288 1.000 10000.000 0.000 -0.824
64 192.00 1500.01 143 316 1.000 10000.000 0.000 -0.824
65 195.00 1500.01 149 314 1.000 10000.000 0.000 -0.824
66 198.00 1500.01 157 332 1.000 10000.000 0.000 -0.824
67 201.00 1500.01 150 343 1.000 10000.000 0.000 -0.824
68 204.00 1500.01 155 352 1.000 10000.000 0.000 -0.824
69 207.00 1500.01 143 291 1.000 10000.000 0.000 -0.824
70 210.00 1500.01 153 320 1.000 10000.000 0.000 -0.824
71 213.00 1500.01 137 288 1.000 10000.000 0.000 -0.824
72 216.00 1500.01 137 272 1.000 10000.000 0.000 -0.824
73 219.00 1500.01 129 258 1.000 10000.000 0.000 -0.824
74 222.00 1500.01 156 284 1.000 10000.000 0.000 -0.824
75 225.00 1500.01 125 253 1.000 10000.000 0.000 -0.824
76 228.00 1500.01 119 246 1.000 10000.000 0.000 -0.824
77 231.00 1500.01 124 217 1.000 10000.000 0.000 -0.824
78 234.00 1500.01 124 250 1.000 10000.000 0.000 -0.824
79 237.00 1500.01 116 262 1.000 10000.000 0.000 -0.824
80 240.00 1500.01 129 223 1.000 10000.000 0.000 -0.824
81 243.00 1500.01 110 224 1.000 10000.000 0.000 -0.824
82 246.00 1500.01 121 237 1.000 10000.000 0.000 -0.824
83 249.00 1500.01 117 211 1.000 10000.000 0.000 -0.824
84 252.00 1500.01 128 199 1.000 10000.000 0.000 -0.824
85 255.00 1500.01 135 244 1.000 10000.000 0.000 -0.824
86 258.00 1500.01 114 198 1.000 10000.000 0.000 -0.824
87 261.00 1500.01 106 243 1.000 10000.000 0.000 -0.824
88 264.00 1500.01 143 227 1.000 10000.000 0.000 -0.824
89 267.00 1500.01 118 259 1.000 10000.000 0.000 -0.824
90 270.00 1500.01 131 270 1.000 10000.000 0.000 -0.824
91 273.00 1500.01 124 255 1.000 10000.000 0.000 -0.824
92 276.00 1500.01 141 275 1.000 10000.000 0.000 -0.824
93 279.00 1500.01 123 290 1.000 10000.000 0.000 -0.824
94 282.00 1500.01 161 301 1.000 10000.000 0.000 -0.824
95 285.00 1500.01 148 302 1.000 10000.000 0.000 -0.824
96 288.00 1500.01 154 321 1.000 10000.000 0.000 -0.824
97 291.00 1500.01 160 319 1.000 10000.000 0.000 -0.824
98 294.00 1500.01 158 341 1.000 10000.000 0.000 -0.824
99 297.00 1500.01 149 324 1.000 10000.000 0.000 -0.824
100 300.00 1500.01 125 339 1.000 10000.000 0.000 -0.824
101 303.00 1500.01 157 312 1.000 10000.000 0.000 -0.824
102 306.00 1500.01 135 328 1.000 10000.000 0.000 -0.824
103 309.00 1500.01 157 303 1.000 10000.000 0.000 -0.824
104 312.00 1500.01 163 285 1.000 10000.000 0.000 -0.824
105 315.00 1500.01 149 292 1.000 10000.000 0.000 -0.824
106 318.00 1500.01 140 256 1.000 10000.000 0.000 -0.824
107 321.00 1500.01 128 241 1.000 10000.000 0.000 -0.824
108 324.00 1500.01 128 247 1.000 10000.000 0.000 -0.824
109 327.00 1500.01 146 260 1.000 10000.000 0.000 -0.824
110 330.00 1500.01 130 287 1.000 10000.000 0.000 -0.824
111 333.00 1500.01 126 254 1.000 10000.000 0.000 -0.824
112 336.00 1500.01 127 270 1.000 10000.000 0.000 -0.824
113 339.00 1500.01 123 206 1.000 10000.000 0.000 -0.824
114 342.00 1500.01 122 219 1.000 10000.000 0.000 -0.824
115 345.00 1500.01 102 215 1.000 10000.000 0.000 -0.824
116 348.00 1500.01 128 242 1.000 10000.000 0.000 -0.824
117 351.00 1500.01 124 207 1.000 10000.000 0.000 -0.824
118 354.00 1500.01 139 218 1.000 10000.000 0.000 -0.824
119 357.00 1500.01 143 259 1.000 10000.000 0.000 -0.824
120 360.00 1500.01 126 238 1.000 10000.000 0.000 -0.824
121 363.00 1500.01 123 271 1.000 10000.000 0.000 -0.824
122 366.00 1500.01 140 249 1.000 10000.000 0.000 -0.824
123 369.00 1500.01 127 242 1.000 10000.000 0.000 -0.824
124 372.00 1500.01 151 244 1.000 10000.000 0.000 -0.824
125 375.00 1500.01 133 254 1.000 10000.000 0.000 -0.824
126 378.00 1500.01 131 288 1.000 10000.000 0.000 -0.824
127 381.00 1500.01 134 300 1.000 10000.000 0.000 -0.824
128 384.00 1500.01 140 299 1.000 10000.000 0.000 -0.824
129 387.00 1500.01 155 329 1.000 10000.000 0.000 -0.824
130 390.00 1500.01 148 325 1.000 10000.000 0.000 -0.824
131 393.00 1500.01 182 313 1.000 10000.000 0.000 -0.824
132 396.00 1500.01 176 307 1.000 10000.000 0.000 -0.824
133 399.00 1500.01 139 294 1.000 10000.000 0.000 -0.824
134 402.00 1500.01 124 304 1.000 10000.000 0.000 -0.824
