# BinNR microsec tot-time (s)  O-Beam AUX Ampl(V) f(Hz) phase(deg) chi(pos)
0 0.00 1500.00 75 124 1.000 10000.000 0.000 1.329
1 3.00 1500.00 137 219 1.000 10000.000 0.000 1.329
2 6.00 1500.00 140 242 1.000 10000.000 0.000 1.329
3 9.00 1500.00 129 232 1.000 10000.000 0.000 1.329
4 12.00 1500.00 116 222 1.000 10000.000 0.000 1.329
5 15.00 1500.00 133 221 1.000 10000.000 0.000 1.329
6 18.00 1500.00 126 194 1.000 10000.000 0.000 1.329
7 21.00 1500.00 138 213 1.000 10000.000 0.000 1.329
8 24.00 1500.00 125 192 1.000 10000.000 0.000 1.329
9 27.00 1500.00 131 215 1.000 10000.000 0.000 1.329
10 30.00 1500.00 131 233 1.000 10000.000 0.000 1.329
11 33.00 1500.00 108 213 1.000 10000.000 0.000 1.329
12 36.00 1500.00 115 200 1.000 10000.000 0.000 1.329
13 39.00 1500.00 133 230 1.000 10000.000 0.000 1.329
14 42.00 1500.00 116 228 1.000 10000.000 0.000 1.329
15 45.00 1500.00 116 203 1.000 10000.000 0.000 1.329
16 48.00 1500.00 110 223 1.000 10000.000 0.000 1.329
17 51.00 1500.00 112 196 1.000 10000.000 0.000 1.329
18 54.00 1500.00 101 192 1.000 10000.000 0.000 1.329
19 57.00 1500.00 105 222 1.000 10000.000 0.000 1.329
20 60.00 1500.00 106 193 1.000 10000.000 0.000 1.329
21 63.00 1500.00 120 195 1.000 10000.000 0.000 1.329
22 66.00 1500.00 107 227 1.000 10000.000 0.000 1.329
23 69.00 1500.00 125 223 1.000 10000.000 0.000 1.329
24 72.00 1500.00 144 217 1.000 10000.000 0.000 1.329
25 75.00 1500.00 125 216 1.000 10000.000 0.000 1.329
26 78.00 1500.00 114 229 1.000 10000.000 0.000 1.329
27 81.00 1500.00 134 244 1.000 10000.000 0.000 1.329
28 84.00 1500.00 115 211 1.000 10000.000 0.000 1.329
29 87.00 1500.00 116 252 1.000 10000.000 0.000 1.329
30 90.00 1500.00 123 220 1.000 10000.000 0.000 1.329
31 93.00 1500.00 125 266 1.000 10000.000 0.000 1.329
32 96.00 1500.00 123 290 1.000 10000.000 0.000 1.329
33 99.00 1500.00 149 264 1.000 10000.000 0.000 1.329
34 102.00 1500.00 128 292 1.000 10000.000 0.000 1.329
35 105.00 1500.00 103 228 1.000 10000.000 0.000 1.329
36 108.00 1500.00 135 225 1.000 10000.000 0.000 1.329
37 111.00 1500.00 122 249 1.000 10000.000 0.000 1.329
38 114.00 1500.00 145 227 1.000 10000.000 0.000 1.329
39 117.00 1500.00 117 204 1.000 10000.000 0.000 1.329
40 120.00 1500.00 121 259 1.000 10000.000 0.000 1.329
41 123.00 1500.00 134 217 1.000 10000.000 0.000 1.329
42 126.00 1500.00 121 202 1.000 10000.000 0.000 1.329
43 129.00 1500.00 122 192 1.000 10000.000 0.000 1.329
44 132.00 1500.00 108 187 1.000 10000.000 0.000 1.329
45 135.00 1500.00 130 192 1.000 10000.000 0.000 1.329
46 138.00 1500.00 119 211 1.000 10000.000 0.000 1.329
47 141.00 1500.00 95 205 1.000 10000.000 0.000 1.329
48 144.00 1500.00 128 222 1.000 10000.000 0.000 1.329
49 147.00 1500.00 106 212 1.000 10000.000 0.000 1.329
50 150.00 1500.00 102 211 1.000 10000.000 0.000 1.329
51 153.00 1500.00 104 200 1.000 10000.000 0.000 1.329
52 156.00 1500.00 110 214 1.000 10000.000 0.000 1.329
53 159.00 1500.00 108 187 1.000 10000.000 0.000 1.329
54 162.00 1500.00 116 198 1.000 10000.000 0.000 1.329
55 165.00 1500.00 119 248 1.000 10000.000 0.000 1.329
56 168.00 1500.00 106 197 1.000 10000.000 0.000 1.329
57 171.00 1500.00 137 233 1.000 10000.000 0.000 1.329
58 174.00 1500.00 126 216 1.000 10000.000 0.000 1.329
59 177.00 1500.00 132 239 1.000 10000.000 0.000 1.329
60 180.00 1500.00 130 251 1.000 10000.000 0.000 1.329
61 183.00 1500.00 129 241 1.000 10000.000 0.000 1.329
62 186.00 1500.00 129 254 1.000 10000.000 0.000 1.329
63 189.00 1500.00 121 248 1.000 10000.000 0.000 1.329
64 192.00 1500.00 158 261 1.000 10000.000 0.000 1.329
65 195.00 1500.00 130 268 1.000 10000.000 0.000 1.329
66 198.00 1500.00 122 264 1.000 10000.000 0.000 1.329
67 201.00 1500.00 134 261 1.000 10000.000 0.000 1.329
68 204.00 1500.00 130 255 1.000 10000.000 0.000 1.329
69 207.00 1500.00 129 250 1.000 10000.000 0.000 1.329
70 210.00 1500.00 137 255 1.000 10000.000 0.000 1.329
71 213.00 1500.00 123 241 1.000 10000.000 0.000 1.329
72 216.00 1500.00 137 200 1.000 10000.000 0.000 1.329
73 219.00 1500.00 105 225 1.000 10000.000 0.000 1.329
74 222.00 1500.00 143 226 1.000 10000.000 0.000 1.329
75 225.00 1500.00 113 197 1.000 10000.000 0.000 1.329
76 228.00 1500.00 115 193 1.000 10000.000 0.000 1.329
77 231.00 1500.00 110 220 1.000 10000.000 0.000 1.329
78 234.00 1500.00 123 197 1.000 10000.000 0.000 1.329
79 237.00 1500.00 122 200 1.000 10000.000 0.000 1.329
80 240.00 1500.00 126 206 1.000 10000.000 0.000 1.329
81 243.00 1500.00 118 232 1.000 10000.000 0.000 1.329
82 246.00 1500.00 140 192 1.000 10000.000 0.000 1.329
83 249.00 1500.00 110 185 1.000 10000.000 0.000 1.329
84 252.00 1500.00 119 191 1.000 10000.000 0.000 1.329
85 255.00 1500.00 118 200 1.000 10000.000 0.000 1.329
86 258.00 1500.00 112 210 1.000 10000.000 0.000 1.329
87 261.00 1500.00 99 223 1.000 10000.000 0.000 1.329
88 264.00 1500.00 111 211 1.000 10000.000 0.000 1.329
89 267.00 1500.00 111 186 1.000 10000.000 0.000 1.329
90 270.00 1500.00 115 253 1.000 10000.000 0.000 1.329
91 273.00 1500.00 120 228 1.000 10000.000 0.000 1.329
92 276.00 1500.00 126 204 1.000 10000.000 0.000 1.329
93 279.00 1500.00 112 210 1.000 10000.000 0.000 1.329
94 282.00 1500.00 132 233 1.000 10000.000 0.000 1.329
95 285.00 1500.00 122 249 1.000 10000.000 0.000 1.329
96 288.00 1500.00 128 237 1.000 10000.000 0.000 1.329
97 291.00 1500.00 128 243 1.000 10000.000 0.000 1.329
98 294.00 1500.00 111 260 1.000 10000.000 0.000 1.329
99 297.00 1500.00 133 251 1.000 10000.000 0.000 1.329
100 300.00 1500.00 138 223 1.000 10000.000 0.000 1.329
101 303.00 1500.00 132 278 1.000 10000.000 0.000 1.329
102 306.00 1500.00 121 255 1.000 10000.000 0.000 1.329
103 309.00 1500.00 136 240 1.000 10000.000 0.000 1.329
104 312.00 1500.00 118 254 1.000 10000.000 0.000 1.329
105 315.00 1500.00 114 251 1.000 10000.000 0.000 1.329
106 318.00 1500.00 127 253 1.000 10000.000 0.000 1.329
107 321.00 1500.00 133 215 1.000 10000.000 0.000 1.329
108 324.00 1500.00 109 203 1.000 10000.000 0.000 1.329
109 327.00 1500.00 107 196 1.000 10000.000 0.000 1.329
110 330.00 1500.00 108 216 1.000 10000.000 0.000 1.329
111 333.00 1500.00 108 218 1.000 10000.000 0.000 1.329
112 336.00 1500.00 118 207 1.000 10000.000 0.000 1.329
113 339.00 1500.00 119 212 1.000 10000.000 0.000 1.329
114 342.00 1500.00 118 227 1.000 10000.000 0.000 1.329
115 345.00 1500.00 111 207 1.000 10000.000 0.000 1.329
116 348.00 1500.00 113 200 1.000 10000.000 0.000 1.329
117 351.00 1500.00 104 186 1.000 10000.000 0.000 1.329
118 354.00 1500.00 104 232 1.000 10000.000 0.000 1.329
119 357.00 1500.00 111 211 1.000 10000.000 0.000 1.329
120 360.00 1500.00 107 202 1.000 10000.000 0.000 1.329
121 363.00 1500.00 122 216 1.000 10000.000 0.000 1.329
122 366.00 1500.00 124 192 1.000 10000.000 0.000 1.329
123 369.00 1500.00 126 233 1.000 10000.000 0.000 1.329
124 372.00 1500.00 121 210 1.000 10000.000 0.000 1.329
125 375.00 1500.00 115 230 1.000 10000.000 0.000 1.329
126 378.00 1500.00 147 251 1.000 10000.000 0.000 1.329
127 381.00 1500.00 121 231 1.000 10000.000 0.000 1.329
128 384.00 1500.00 130 222 1.000 10000.000 0.000 1.329
129 387.00 1500.00 146 246 1.000 10000.000 0.000 1.329
130 390.00 1500.00 129 256 1.000 10000.000 0.000 1.329
131 393.00 1500.00 125 263 1.000 10000.000 0.000 1.329
132 396.00 1500.00 108 245 1.000 10000.000 0.000 1.329
133 399.00 1500.00 136 291 1.000 10000.000 0.000 1.329
134 402.00 1500.00 122 247 1.000 10000.000 0.000 1.329
