# BinNR microsec tot-time (s)  O-Beam AUX Ampl(V) f(Hz) phase(deg) chi(pos)
0 0.00 1500.01 50 96 1.000 10000.000 0.000 1.494
1 3.00 1500.01 106 182 1.000 10000.000 0.000 1.494
2 6.00 1500.01 118 195 1.000 10000.000 0.000 1.494
3 9.00 1500.01 104 193 1.000 10000.000 0.000 1.494
4 12.00 1500.01 118 184 1.000 10000.000 0.000 1.494
5 15.00 1500.01 106 190 1.000 10000.000 0.000 1.494
6 18.00 1500.01 119 213 1.000 10000.000 0.000 1.494
7 21.00 1500.01 110 213 1.000 10000.000 0.000 1.494
8 24.00 1500.01 115 246 1.000 10000.000 0.000 1.494
9 27.00 1500.01 111 205 1.000 10000.000 0.000 1.494
10 30.00 1500.01 101 221 1.000 10000.000 0.000 1.494
11 33.00 1500.01 127 220 1.000 10000.000 0.000 1.494
12 36.00 1500.01 142 232 1.000 10000.000 0.000 1.494
13 39.00 1500.01 100 229 1.000 10000.000 0.000 1.494
14 42.00 1500.01 119 252 1.000 10000.000 0.000 1.494
15 45.00 1500.01 114 222 1.000 10000.000 0.000 1.494
16 48.00 1500.01 116 239 1.000 10000.000 0.000 1.494
17 51.00 1500.01 86 228 1.000 10000.000 0.000 1.494
18 54.00 1500.01 102 222 1.000 10000.000 0.000 1.494
19 57.00 1500.01 100 221 1.000 10000.000 0.000 1.494
20 60.00 1500.01 112 245 1.000 10000.000 0.000 1.494
21 63.00 1500.01 111 225 1.000 10000.000 0.000 1.494
22 66.00 1500.01 90 219 1.000 10000.000 0.000 1.494
23 69.00 1500.01 91 205 1.000 10000.000 0.000 1.494
24 72.00 1500.01 109 192 1.000 10000.000 0.000 1.494
25 75.00 1500.01 97 218 1.000 10000.000 0.000 1.494
26 78.00 1500.01 131 197 1.000 10000.000 0.000 1.494
27 81.00 1500.01 118 194 1.000 10000.000 0.000 1.494
28 84.00 1500.01 111 225 1.000 10000.000 0.000 1.494
29 87.00 1500.01 99 201 1.000 10000.000 0.000 1.494
30 90.00 1500.01 112 205 1.000 10000.000 0.000 1.494
31 93.00 1500.01 113 227 1.000 10000.000 0.000 1.494
32 96.00 1500.01 127 225 1.000 10000.000 0.000 1.494
33 99.00 1500.01 129 197 1.000 10000.000 0.000 1.494
34 102.00 1500.01 127 207 1.000 10000.000 0.000 1.494
35 105.00 1500.01 116 198 1.000 10000.000 0.000 1.494
36 108.00 1500.01 110 233 1.000 10000.000 0.000 1.494
37 111.00 1500.01 105 199 1.000 10000.000 0.000 1.494
38 114.00 1500.01 125 205 1.000 10000.000 0.000 1.494
39 117.00 1500.01 115 217 1.000 10000.000 0.000 1.494
40 120.00 1500.01 109 209 1.000 10000.000 0.000 1.494
41 123.00 1500.01 123 235 1.000 10000.000 0.000 1.494
42 126.00 1500.01 117 204 1.000 10000.000 0.000 1.494
43 129.00 1500.01 106 218 1.000 10000.000 0.000 1.494
44 132.00 1500.01 106 226 1.000 10000.000 0.000 1.494
45 135.00 1500.01 132 214 1.000 10000.000 0.000 1.494
46 138.00 1500.01 115 233 1.000 10000.000 0.000 1.494
47 141.00 1500.01 126 220 1.000 10000.000 0.000 1.494
48 144.00 1500.01 97 250 1.000 10000.000 0.000 1.494
49 147.00 1500.01 91 235 1.000 10000.000 0.000 1.494
50 150.00 1500.01 113 251 1.000 10000.000 0.000 1.494
51 153.00 1500.01 117 213 1.000 10000.000 0.000 1.494
52 156.00 1500.01 109 224 1.000 10000.000 0.000 1.494
53 159.00 1500.01 108 220 1.000 10000.000 0.000 1.494
54 162.00 1500.01 103 216 1.000 10000.000 0.000 1.494
55 165.00 1500.01 101 199 1.000 10000.000 0.000 1.494
56 168.00 1500.01 107 214 1.000 10000.000 0.000 1.494
57 171.00 1500.01 116 219 1.000 10000.000 0.000 1.494
58 174.00 1500.01 118 199 1.000 10000.000 0.000 1.494
59 177.00 1500.01 109 188 1.000 10000.000 0.000 1.494
60 180.00 1500.01 111 191 1.000 10000.000 0.000 1.494
61 183.00 1500.01 111 189 1.000 10000.000 0.000 1.494
62 186.00 1500.01 109 209 1.000 10000.000 0.000 1.494
63 189.00 1500.01 118 202 1.000 10000.000 0.000 1.494
64 192.00 1500.01 131 190 1.000 10000.000 0.000 1.494
65 195.00 1500.01 116 210 1.000 10000.000 0.000 1.494
66 198.00 1500.01 112 209 1.000 10000.000 0.000 1.494
67 201.00 1500.01 127 197 1.000 10000.000 0.000 1.494
68 204.00 1500.01 100 228 1.000 10000.000 0.000 1.494
69 207.00 1500.01 117 218 1.000 10000.000 0.000 1.494
70 210.00 1500.01 127 218 1.000 10000.000 0.000 1.494
71 213.00 1500.01 109 200 1.000 10000.000 0.000 1.494
72 216.00 1500.01 101 218 1.000 10000.000 0.000 1.494
73 219.00 1500.01 113 187 1.000 10000.000 0.000 1.494
74 222.00 1500.01 118 221 1.000 10000.000 0.000 1.494
75 225.00 1500.01 132 242 1.000 10000.000 0.000 1.494
76 228.00 1500.01 109 209 1.000 10000.000 0.000 1.494
77 231.00 1500.01 133 220 1.000 10000.000 0.000 1.494
78 234.00 1500.01 126 217 1.000 10000.000 0.000 1.494
79 237.00 1500.01 105 232 1.000 10000.000 0.000 1.494
80 240.00 1500.01 122 224 1.000 10000.000 0.000 1.494
81 243.00 1500.01 131 202 1.000 10000.000 0.000 1.494
82 246.00 1500.01 113 240 1.000 10000.000 0.000 1.494
83 249.00 1500.01 103 256 1.000 10000.000 0.000 1.494
84 252.00 1500.01 104 235 1.000 10000.000 0.000 1.494
85 255.00 1500.01 105 233 1.000 10000.000 0.000 1.494
86 258.00 1500.01 121 220 1.000 10000.000 0.000 1.494
87 261.00 1500.01 104 203 1.000 10000.000 0.000 1.494
88 264.00 1500.01 99 203 1.000 10000.000 0.000 1.494
89 267.00 1500.01 99 202 1.000 10000.000 0.000 1.494
90 270.00 1500.01 95 206 1.000 10000.000 0.000 1.494
91 273.00 1500.01 108 228 1.000 10000.000 0.000 1.494
92 276.00 1500.01 135 199 1.000 10000.000 0.000 1.494
93 279.00 1500.01 129 201 1.000 10000.000 0.000 1.494
94 282.00 1500.01 107 211 1.000 10000.000 0.000 1.494
95 285.00 1500.01 111 215 1.000 10000.000 0.000 1.494
96 288.00 1500.01 121 222 1.000 10000.000 0.000 1.494
97 291.00 1500.01 107 204 1.000 10000.000 0.000 1.494
98 294.00 1500.01 122 192 1.000 10000.000 0.000 1.494
99 297.00 1500.01 125 234 1.000 10000.000 0.000 1.494
100 300.00 1500.01 112 228 1.000 10000.000 0.000 1.494
101 303.00 1500.01 125 197 1.000 10000.000 0.000 1.494
102 306.00 1500.01 112 221 1.000 10000.000 0.000 1.494
103 309.00 1500.01 118 196 1.000 10000.000 0.000 1.494
104 312.00 1500.01 100 226 1.000 10000.000 0.000 1.494
105 315.00 1500.01 99 208 1.000 10000.000 0.000 1.494
106 318.00 1500.01 117 217 1.000 10000.000 0.000 1.494
107 321.00 1500.01 108 200 1.000 10000.000 0.000 1.494
108 324.00 1500.01 109 216 1.000 10000.000 0.000 1.494
109 327.00 1500.01 99 212 1.000 10000.000 0.000 1.494
110 330.00 1500.01 123 211 1.000 10000.000 0.000 1.494
111 333.00 1500.01 117 234 1.000 10000.000 0.000 1.494
112 336.00 1500.01 109 211 1.000 10000.000 0.000 1.494
113 339.00 1500.01 112 236 1.000 10000.000 0.000 1.494
114 342.00 1500.01 96 241 1.000 10000.000 0.000 1.494
115 345.00 1500.01 121 235 1.000 10000.000 0.000 1.494
116 348.00 1500.01 117 236 1.000 10000.000 0.000 1.494
117 351.00 1500.01 128 217 1.000 10000.000 0.000 1.494
118 354.00 1500.01 117 205 1.000 10000.000 0.000 1.494
119 357.00 1500.01 105 244 1.000 10000.000 0.000 1.494
120 360.00 1500.01 111 209 1.000 10000.000 0.000 1.494
121 363.00 1500.01 116 203 1.000 10000.000 0.000 1.494
122 366.00 1500.01 128 223 1.000 10000.000 0.000 1.494
123 369.00 1500.01 128 221 1.000 10000.000 0.000 1.494
124 372.00 1500.01 111 187 1.000 10000.000 0.000 1.494
125 375.00 1500.01 121 176 1.000 10000.000 0.000 1.494
126 378.00 1500.01 111 199 1.000 10000.000 0.000 1.494
127 381.00 1500.01 92 223 1.000 10000.000 0.000 1.494
128 384.00 1500.01 111 209 1.000 10000.000 0.000 1.494
129 387.00 1500.01 108 211 1.000 10000.000 0.000 1.494
130 390.00 1500.01 130 193 1.000 10000.000 0.000 1.494
131 393.00 1500.01 111 202 1.000 10000.000 0.000 1.494
132 396.00 1500.01 127 197 1.000 10000.000 0.000 1.494
133 399.00 1500.01 111 205 1.000 10000.000 0.000 1.494
134 402.00 1500.01 103 212 1.000 10000.000 0.000 1.494
