# BinNR microsec tot-time (s)  O-Beam AUX Ampl(V) f(Hz) phase(deg) chi(pos)
0 0.00 1500.00 105 282 1.000 10000.000 0.000 -1.329
1 3.00 1500.00 201 610 1.000 10000.000 0.000 -1.329
2 6.00 1500.00 196 616 1.000 10000.000 0.000 -1.329
3 9.00 1500.00 196 578 1.000 10000.000 0.000 -1.329
4 12.00 1500.00 208 627 1.000 10000.000 0.000 -1.329
5 15.00 1500.00 217 598 1.000 10000.000 0.000 -1.329
6 18.00 1500.00 200 558 1.000 10000.000 0.000 -1.329
7 21.00 1500.00 218 570 1.000 10000.000 0.000 -1.329
8 24.00 1500.00 210 576 1.000 10000.000 0.000 -1.329
9 27.00 1500.00 208 498 1.000 10000.000 0.000 -1.329
10 30.00 1500.00 203 508 1.000 10000.000 0.000 -1.329
11 33.00 1500.00 190 536 1.000 10000.000 0.000 -1.329
12 36.00 1500.00 210 530 1.000 10000.000 0.000 -1.329
13 39.00 1500.00 206 508 1.000 10000.000 0.000 -1.329
14 42.00 1500.00 190 494 1.000 10000.000 0.000 -1.329
15 45.00 1500.00 180 494 1.000 10000.000 0.000 -1.329
16 48.00 1500.00 183 520 1.000 10000.000 0.000 -1.329
17 51.00 1500.00 207 518 1.000 10000.000 0.000 -1.329
18 54.00 1500.00 190 503 1.000 10000.000 0.000 -1.329
19 57.00 1500.00 196 481 1.000 10000.000 0.000 -1.329
20 60.00 1500.00 238 547 1.000 10000.000 0.000 -1.329
21 63.00 1500.00 208 561 1.000 10000.000 0.000 -1.329
22 66.00 1500.00 226 570 1.000 10000.000 0.000 -1.329
23 69.00 1500.00 191 545 1.000 10000.000 0.000 -1.329
24 72.00 1500.00 230 584 1.000 10000.000 0.000 -1.329
25 75.00 1500.00 212 588 1.000 10000.000 0.000 -1.329
26 78.00 1500.00 235 588 1.000 10000.000 0.000 -1.329
27 81.00 1500.00 219 562 1.000 10000.000 0.000 -1.329
28 84.00 1500.00 227 618 1.000 10000.000 0.000 -1.329
29 87.00 1500.00 220 596 1.000 10000.000 0.000 -1.329
30 90.00 1500.00 233 619 1.000 10000.000 0.000 -1.329
31 93.00 1500.00 228 624 1.000 10000.000 0.000 -1.329
32 96.00 1500.00 236 620 1.000 10000.000 0.000 -1.329
33 99.00 1500.00 236 621 1.000 10000.000 0.000 -1.329
34 102.00 1500.00 248 580 1.000 10000.000 0.000 -1.329
35 105.00 1500.00 208 634 1.000 10000.000 0.000 -1.329
36 108.00 1500.00 209 597 1.000 10000.000 0.000 -1.329
37 111.00 1500.00 226 642 1.000 10000.000 0.000 -1.329
38 114.00 1500.00 219 628 1.000 10000.000 0.000 -1.329
39 117.00 1500.00 235 590 1.000 10000.000 0.000 -1.329
40 120.00 1500.00 197 591 1.000 10000.000 0.000 -1.329
41 123.00 1500.00 214 583 1.000 10000.000 0.000 -1.329
42 126.00 1500.00 199 571 1.000 10000.000 0.000 -1.329
43 129.00 1500.00 207 580 1.000 10000.000 0.000 -1.329
44 132.00 1500.00 203 533 1.000 10000.000 0.000 -1.329
45 135.00 1500.00 185 558 1.000 10000.000 0.000 -1.329
46 138.00 1500.00 190 544 1.000 10000.000 0.000 -1.329
47 141.00 1500.00 208 499 1.000 10000.000 0.000 -1.329
48 144.00 1500.00 209 512 1.000 10000.000 0.000 -1.329
49 147.00 1500.00 224 502 1.000 10000.000 0.000 -1.329
50 150.00 1500.00 217 505 1.000 10000.000 0.000 -1.329
51 153.00 1500.00 185 487 1.000 10000.000 0.000 -1.329
52 156.00 1500.00 221 537 1.000 10000.000 0.000 -1.329
53 159.00 1500.00 218 494 1.000 10000.000 0.000 -1.329
54 162.00 1500.00 214 543 1.000 10000.000 0.000 -1.329
55 165.00 1500.00 200 519 1.000 10000.000 0.000 -1.329
56 168.00 1500.00 228 532 1.000 10000.000 0.000 -1.329
57 171.00 1500.00 205 587 1.000 10000.000 0.000 -1.329
58 174.00 1500.00 254 590 1.000 10000.000 0.000 -1.329
59 177.00 1500.00 203 545 1.000 10000.000 0.000 -1.329
60 180.00 1500.00 200 587 1.000 10000.000 0.000 -1.329
61 183.00 1500.00 225 587 1.000 10000.000 0.000 -1.329
62 186.00 1500.00 235 647 1.000 10000.000 0.000 -1.329
63 189.00 1500.00 231 597 1.000 10000.000 0.000 -1.329
64 192.00 1500.00 222 622 1.000 10000.000 0.000 -1.329
65 195.00 1500.00 236 655 1.000 10000.000 0.000 -1.329
66 198.00 1500.00 214 652 1.000 10000.000 0.000 -1.329
67 201.00 1500.00 205 605 1.000 10000.000 0.000 -1.329
68 204.00 1500.00 231 604 1.000 10000.000 0.000 -1.329
69 207.00 1500.00 243 598 1.000 10000.000 0.000 -1.329
70 210.00 1500.00 219 609 1.000 10000.000 0.000 -1.329
71 213.00 1500.00 208 615 1.000 10000.000 0.000 -1.329
72 216.00 1500.00 233 609 1.000 10000.000 0.000 -1.329
73 219.00 1500.00 211 580 1.000 10000.000 0.000 -1.329
74 222.00 1500.00 195 557 1.000 10000.000 0.000 -1.329
75 225.00 1500.00 179 560 1.000 10000.000 0.000 -1.329
76 228.00 1500.00 203 547 1.000 10000.000 0.000 -1.329
77 231.00 1500.00 223 555 1.000 10000.000 0.000 -1.329
78 234.00 1500.00 204 563 1.000 10000.000 0.000 -1.329
79 237.00 1500.00 206 521 1.000 10000.000 0.000 -1.329
80 240.00 1500.00 217 478 1.000 10000.000 0.000 -1.329
81 243.00 1500.00 175 460 1.000 10000.000 0.000 -1.329
82 246.00 1500.00 203 509 1.000 10000.000 0.000 -1.329
83 249.00 1500.00 207 494 1.000 10000.000 0.000 -1.329
84 252.00 1500.00 196 538 1.000 10000.000 0.000 -1.329
85 255.00 1500.00 217 526 1.000 10000.000 0.000 -1.329
86 258.00 1500.00 206 474 1.000 10000.000 0.000 -1.329
87 261.00 1500.00 208 509 1.000 10000.000 0.000 -1.329
88 264.00 1500.00 226 559 1.000 10000.000 0.000 -1.329
89 267.00 1500.00 199 531 1.000 10000.000 0.000 -1.329
90 270.00 1500.00 219 575 1.000 10000.000 0.000 -1.329
91 273.00 1500.00 210 589 1.000 10000.000 0.000 -1.329
92 276.00 1500.00 231 637 1.000 10000.000 0.000 -1.329
93 279.00 1500.00 223 588 1.000 10000.000 0.000 -1.329
94 282.00 1500.00 232 617 1.000 10000.000 0.000 -1.329
95 285.00 1500.00 245 642 1.000 10000.000 0.000 -1.329
96 288.00 1500.00 221 693 1.000 10000.000 0.000 -1.329
97 291.00 1500.00 218 624 1.000 10000.000 0.000 -1.329
98 294.00 1500.00 199 632 1.000 10000.000 0.000 -1.329
99 297.00 1500.00 251 636 1.000 10000.000 0.000 -1.329
100 300.00 1500.00 242 634 1.000 10000.000 0.000 -1.329
101 303.00 1500.00 221 624 1.000 10000.000 0.000 -1.329
102 306.00 1500.00 253 661 1.000 10000.000 0.000 -1.329
103 309.00 1500.00 216 615 1.000 10000.000 0.000 -1.329
104 312.00 1500.00 236 589 1.000 10000.000 0.000 -1.329
105 315.00 1500.00 191 588 1.000 10000.000 0.000 -1.329
106 318.00 1500.00 196 571 1.000 10000.000 0.000 -1.329
107 321.00 1500.00 241 568 1.000 10000.000 0.000 -1.329
108 324.00 1500.00 244 537 1.000 10000.000 0.000 -1.329
109 327.00 1500.00 192 524 1.000 10000.000 0.000 -1.329
110 330.00 1500.00 193 552 1.000 10000.000 0.000 -1.329
111 333.00 1500.00 206 521 1.000 10000.000 0.000 -1.329
112 336.00 1500.00 195 501 1.000 10000.000 0.000 -1.329
113 339.00 1500.00 221 507 1.000 10000.000 0.000 -1.329
114 342.00 1500.00 209 496 1.000 10000.000 0.000 -1.329
115 345.00 1500.00 193 522 1.000 10000.000 0.000 -1.329
116 348.00 1500.00 195 516 1.000 10000.000 0.000 -1.329
117 351.00 1500.00 200 476 1.000 10000.000 0.000 -1.329
118 354.00 1500.00 195 532 1.000 10000.000 0.000 -1.329
119 357.00 1500.00 202 502 1.000 10000.000 0.000 -1.329
120 360.00 1500.00 217 533 1.000 10000.000 0.000 -1.329
121 363.00 1500.00 219 559 1.000 10000.000 0.000 -1.329
122 366.00 1500.00 211 577 1.000 10000.000 0.000 -1.329
123 369.00 1500.00 229 558 1.000 10000.000 0.000 -1.329
124 372.00 1500.00 232 585 1.000 10000.000 0.000 -1.329
125 375.00 1500.00 221 593 1.000 10000.000 0.000 -1.329
126 378.00 1500.00 232 619 1.000 10000.000 0.000 -1.329
127 381.00 1500.00 212 611 1.000 10000.000 0.000 -1.329
128 384.00 1500.00 243 641 1.000 10000.000 0.000 -1.329
129 387.00 1500.00 208 590 1.000 10000.000 0.000 -1.329
130 390.00 1500.00 222 653 1.000 10000.000 0.000 -1.329
131 393.00 1500.00 231 565 1.000 10000.000 0.000 -1.329
132 396.00 1500.00 242 618 1.000 10000.000 0.000 -1.329
133 399.00 1500.00 210 639 1.000 10000.000 0.000 -1.329
134 402.00 1500.00 231 600 1.000 10000.000 0.000 -1.329
