# BinNR microsec tot-time (s)  O-Beam AUX Ampl(V) f(Hz) phase(deg) chi(pos)
0 0.00 1500.00 116 367 1.000 10000.000 0.000 0.505
1 3.00 1500.00 228 686 1.000 10000.000 0.000 0.505
2 6.00 1500.00 211 684 1.000 10000.000 0.000 0.505
3 9.00 1500.00 199 725 1.000 10000.000 0.000 0.505
4 12.00 1500.00 222 687 1.000 10000.000 0.000 0.505
5 15.00 1500.00 224 650 1.000 10000.000 0.000 0.505
6 18.00 1500.00 261 716 1.000 10000.000 0.000 0.505
7 21.00 1500.00 237 687 1.000 10000.000 0.000 0.505
8 24.00 1500.00 232 682 1.000 10000.000 0.000 0.505
9 27.00 1500.00 238 608 1.000 10000.000 0.000 0.505
10 30.00 1500.00 226 640 1.000 10000.000 0.000 0.505
11 33.00 1500.00 219 636 1.000 10000.000 0.000 0.505
12 36.00 1500.00 247 673 1.000 10000.000 0.000 0.505
13 39.00 1500.00 237 649 1.000 10000.000 0.000 0.505
14 42.00 1500.00 245 665 1.000 10000.000 0.000 0.505
15 45.00 1500.00 230 644 1.000 10000.000 0.000 0.505
16 48.00 1500.00 222 690 1.000 10000.000 0.000 0.505
17 51.00 1500.00 269 670 1.000 10000.000 0.000 0.505
18 54.00 1500.00 223 659 1.000 10000.000 0.000 0.505
19 57.00 1500.00 254 638 1.000 10000.000 0.000 0.505
20 60.00 1500.00 258 670 1.000 10000.000 0.000 0.505
21 63.00 1500.00 239 623 1.000 10000.000 0.000 0.505
22 66.00 1500.00 236 671 1.000 10000.000 0.000 0.505
23 69.00 1500.00 254 655 1.000 10000.000 0.000 0.505
24 72.00 1500.00 235 692 1.000 10000.000 0.000 0.505
25 75.00 1500.00 234 645 1.000 10000.000 0.000 0.505
26 78.00 1500.00 222 647 1.000 10000.000 0.000 0.505
27 81.00 1500.00 223 642 1.000 10000.000 0.000 0.505
28 84.00 1500.00 268 653 1.000 10000.000 0.000 0.505
29 87.00 1500.00 217 710 1.000 10000.000 0.000 0.505
30 90.00 1500.00 231 714 1.000 10000.000 0.000 0.505
31 93.00 1500.00 239 663 1.000 10000.000 0.000 0.505
32 96.00 1500.00 257 669 1.000 10000.000 0.000 0.505
33 99.00 1500.00 232 646 1.000 10000.000 0.000 0.505
34 102.00 1500.00 233 638 1.000 10000.000 0.000 0.505
35 105.00 1500.00 248 678 1.000 10000.000 0.000 0.505
36 108.00 1500.00 227 711 1.000 10000.000 0.000 0.505
37 111.00 1500.00 219 733 1.000 10000.000 0.000 0.505
38 114.00 1500.00 226 697 1.000 10000.000 0.000 0.505
39 117.00 1500.00 226 678 1.000 10000.000 0.000 0.505
40 120.00 1500.00 226 679 1.000 10000.000 0.000 0.505
41 123.00 1500.00 216 670 1.000 10000.000 0.000 0.505
42 126.00 1500.00 226 685 1.000 10000.000 0.000 0.505
43 129.00 1500.00 228 655 1.000 10000.000 0.000 0.505
44 132.00 1500.00 222 659 1.000 10000.000 0.000 0.505
45 135.00 1500.00 236 563 1.000 10000.000 0.000 0.505
46 138.00 1500.00 241 624 1.000 10000.000 0.000 0.505
47 141.00 1500.00 217 666 1.000 10000.000 0.000 0.505
48 144.00 1500.00 213 642 1.000 10000.000 0.000 0.505
49 147.00 1500.00 261 619 1.000 10000.000 0.000 0.505
50 150.00 1500.00 237 589 1.000 10000.000 0.000 0.505
51 153.00 1500.00 247 645 1.000 10000.000 0.000 0.505
52 156.00 1500.00 239 672 1.000 10000.000 0.000 0.505
53 159.00 1500.00 225 666 1.000 10000.000 0.000 0.505
54 162.00 1500.00 244 659 1.000 10000.000 0.000 0.505
55 165.00 1500.00 245 639 1.000 10000.000 0.000 0.505
56 168.00 1500.00 270 650 1.000 10000.000 0.000 0.505
57 171.00 1500.00 227 758 1.000 10000.000 0.000 0.505
58 174.00 1500.00 247 689 1.000 10000.000 0.000 0.505
59 177.00 1500.00 215 663 1.000 10000.000 0.000 0.505
60 180.00 1500.00 226 743 1.000 10000.000 0.000 0.505
61 183.00 1500.00 217 664 1.000 10000.000 0.000 0.505
62 186.00 1500.00 223 656 1.000 10000.000 0.000 0.505
63 189.00 1500.00 222 714 1.000 10000.000 0.000 0.505
64 192.00 1500.00 231 684 1.000 10000.000 0.000 0.505
65 195.00 1500.00 219 659 1.000 10000.000 0.000 0.505
66 198.00 1500.00 226 672 1.000 10000.000 0.000 0.505
67 201.00 1500.00 223 676 1.000 10000.000 0.000 0.505
68 204.00 1500.00 217 709 1.000 10000.000 0.000 0.505
69 207.00 1500.00 229 640 1.000 10000.000 0.000 0.505
70 210.00 1500.00 220 660 1.000 10000.000 0.000 0.505
71 213.00 1500.00 241 656 1.000 10000.000 0.000 0.505
72 216.00 1500.00 228 680 1.000 10000.000 0.000 0.505
73 219.00 1500.00 229 644 1.000 10000.000 0.000 0.505
74 222.00 1500.00 252 625 1.000 10000.000 0.000 0.505
75 225.00 1500.00 225 689 1.000 10000.000 0.000 0.505
76 228.00 1500.00 227 625 1.000 10000.000 0.000 0.505
77 231.00 1500.00 263 622 1.000 10000.000 0.000 0.505
78 234.00 1500.00 258 606 1.000 10000.000 0.000 0.505
79 237.00 1500.00 228 618 1.000 10000.000 0.000 0.505
80 240.00 1500.00 241 649 1.000 10000.000 0.000 0.505
81 243.00 1500.00 221 614 1.000 10000.000 0.000 0.505
82 246.00 1500.00 232 636 1.000 10000.000 0.000 0.505
83 249.00 1500.00 242 652 1.000 10000.000 0.000 0.505
84 252.00 1500.00 243 624 1.000 10000.000 0.000 0.505
85 255.00 1500.00 229 656 1.000 10000.000 0.000 0.505
86 258.00 1500.00 253 640 1.000 10000.000 0.000 0.505
87 261.00 1500.00 249 668 1.000 10000.000 0.000 0.505
88 264.00 1500.00 232 707 1.000 10000.000 0.000 0.505
89 267.00 1500.00 233 659 1.000 10000.000 0.000 0.505
90 270.00 1500.00 245 643 1.000 10000.000 0.000 0.505
91 273.00 1500.00 207 649 1.000 10000.000 0.000 0.505
92 276.00 1500.00 253 678 1.000 10000.000 0.000 0.505
93 279.00 1500.00 243 671 1.000 10000.000 0.000 0.505
94 282.00 1500.00 231 660 1.000 10000.000 0.000 0.505
95 285.00 1500.00 228 689 1.000 10000.000 0.000 0.505
96 288.00 1500.00 235 645 1.000 10000.000 0.000 0.505
97 291.00 1500.00 211 694 1.000 10000.000 0.000 0.505
98 294.00 1500.00 254 636 1.000 10000.000 0.000 0.505
99 297.00 1500.00 238 643 1.000 10000.000 0.000 0.505
100 300.00 1500.00 235 691 1.000 10000.000 0.000 0.505
101 303.00 1500.00 238 692 1.000 10000.000 0.000 0.505
102 306.00 1500.00 212 603 1.000 10000.000 0.000 0.505
103 309.00 1500.00 212 684 1.000 10000.000 0.000 0.505
104 312.00 1500.00 209 708 1.000 10000.000 0.000 0.505
105 315.00 1500.00 216 697 1.000 10000.000 0.000 0.505
106 318.00 1500.00 245 678 1.000 10000.000 0.000 0.505
107 321.00 1500.00 219 690 1.000 10000.000 0.000 0.505
108 324.00 1500.00 268 658 1.000 10000.000 0.000 0.505
109 327.00 1500.00 240 662 1.000 10000.000 0.000 0.505
110 330.00 1500.00 202 701 1.000 10000.000 0.000 0.505
111 333.00 1500.00 242 651 1.000 10000.000 0.000 0.505
112 336.00 1500.00 237 642 1.000 10000.000 0.000 0.505
113 339.00 1500.00 245 668 1.000 10000.000 0.000 0.505
114 342.00 1500.00 231 640 1.000 10000.000 0.000 0.505
115 345.00 1500.00 252 681 1.000 10000.000 0.000 0.505
116 348.00 1500.00 241 650 1.000 10000.000 0.000 0.505
117 351.00 1500.00 234 631 1.000 10000.000 0.000 0.505
118 354.00 1500.00 233 684 1.000 10000.000 0.000 0.505
119 357.00 1500.00 228 623 1.000 10000.000 0.000 0.505
120 360.00 1500.00 246 637 1.000 10000.000 0.000 0.505
121 363.00 1500.00 250 695 1.000 10000.000 0.000 0.505
122 366.00 1500.00 224 682 1.000 10000.000 0.000 0.505
123 369.00 1500.00 243 670 1.000 10000.000 0.000 0.505
124 372.00 1500.00 226 664 1.000 10000.000 0.000 0.505
125 375.00 1500.00 225 664 1.000 10000.000 0.000 0.505
126 378.00 1500.00 218 680 1.000 10000.000 0.000 0.505
127 381.00 1500.00 219 691 1.000 10000.000 0.000 0.505
128 384.00 1500.00 243 681 1.000 10000.000 0.000 0.505
129 387.00 1500.00 256 719 1.000 10000.000 0.000 0.505
130 390.00 1500.00 247 739 1.000 10000.000 0.000 0.505
131 393.00 1500.00 236 743 1.000 10000.000 0.000 0.505
132 396.00 1500.00 236 687 1.000 10000.000 0.000 0.505
133 399.00 1500.00 243 706 1.000 10000.000 0.000 0.505
134 402.00 1500.00 248 674 1.000 10000.000 0.000 0.505
