# BinNR microsec tot-time (s)  O-Beam AUX Ampl(V) f(Hz) phase(deg) chi(pos)
0 0.00 1500.01 45 136 1.000 10000.000 0.000 -0.330
1 3.00 1500.01 118 256 1.000 10000.000 0.000 -0.330
2 6.00 1500.01 115 239 1.000 10000.000 0.000 -0.330
3 9.00 1500.01 110 244 1.000 10000.000 0.000 -0.330
4 12.00 1500.01 137 264 1.000 10000.000 0.000 -0.330
5 15.00 1500.01 133 285 1.000 10000.000 0.000 -0.330
6 18.00 1500.01 157 284 1.000 10000.000 0.000 -0.330
7 21.00 1500.01 140 305 1.000 10000.000 0.000 -0.330
8 24.00 1500.01 121 295 1.000 10000.000 0.000 -0.330
9 27.00 1500.01 137 312 1.000 10000.000 0.000 -0.330
10 30.00 1500.01 155 356 1.000 10000.000 0.000 -0.330
11 33.00 1500.01 138 329 1.000 10000.000 0.000 -0.330
12 36.00 1500.01 143 349 1.000 10000.000 0.000 -0.330
13 39.00 1500.01 140 361 1.000 10000.000 0.000 -0.330
14 42.00 1500.01 126 372 1.000 10000.000 0.000 -0.330
15 45.00 1500.01 179 336 1.000 10000.000 0.000 -0.330
16 48.00 1500.01 128 349 1.000 10000.000 0.000 -0.330
17 51.00 1500.01 121 352 1.000 10000.000 0.000 -0.330
18 54.00 1500.01 146 354 1.000 10000.000 0.000 -0.330
19 57.00 1500.01 128 317 1.000 10000.000 0.000 -0.330
20 60.00 1500.01 138 317 1.000 10000.000 0.000 -0.330
21 63.00 1500.01 146 324 1.000 10000.000 0.000 -0.330
22 66.00 1500.01 126 332 1.000 10000.000 0.000 -0.330
23 69.00 1500.01 136 304 1.000 10000.000 0.000 -0.330
24 72.00 1500.01 131 294 1.000 10000.000 0.000 -0.330
25 75.00 1500.01 128 273 1.000 10000.000 0.000 -0.330
26 78.00 1500.01 139 275 1.000 10000.000 0.000 -0.330
27 81.00 1500.01 134 274 1.000 10000.000 0.000 -0.330
28 84.00 1500.01 134 257 1.000 10000.000 0.000 -0.330
29 87.00 1500.01 118 241 1.000 10000.000 0.000 -0.330
30 90.00 1500.01 132 237 1.000 10000.000 0.000 -0.330
31 93.00 1500.01 126 227 1.000 10000.000 0.000 -0.330
32 96.00 1500.01 135 242 1.000 10000.000 0.000 -0.330
33 99.00 1500.01 115 221 1.000 10000.000 0.000 -0.330
34 102.00 1500.01 134 239 1.000 10000.000 0.000 -0.330
35 105.00 1500.01 101 262 1.000 10000.000 0.000 -0.330
36 108.00 1500.01 115 265 1.000 10000.000 0.000 -0.330
37 111.00 1500.01 125 260 1.000 10000.000 0.000 -0.330
38 114.00 1500.01 130 274 1.000 10000.000 0.000 -0.330
39 117.00 1500.01 118 239 1.000 10000.000 0.000 -0.330
40 120.00 1500.01 113 295 1.000 10000.000 0.000 -0.330
41 123.00 1500.01 146 296 1.000 10000.000 0.000 -0.330
42 126.00 1500.01 132 301 1.000 10000.000 0.000 -0.330
43 129.00 1500.01 145 311 1.000 10000.000 0.000 -0.330
44 132.00 1500.01 129 321 1.000 10000.000 0.000 -0.330
45 135.00 1500.01 122 334 1.000 10000.000 0.000 -0.330
46 138.00 1500.01 155 373 1.000 10000.000 0.000 -0.330
47 141.00 1500.01 142 308 1.000 10000.000 0.000 -0.330
48 144.00 1500.01 147 349 1.000 10000.000 0.000 -0.330
49 147.00 1500.01 148 363 1.000 10000.000 0.000 -0.330
50 150.00 1500.01 153 376 1.000 10000.000 0.000 -0.330
51 153.00 1500.01 142 361 1.000 10000.000 0.000 -0.330
52 156.00 1500.01 145 314 1.000 10000.000 0.000 -0.330
53 159.00 1500.01 146 293 1.000 10000.000 0.000 -0.330
54 162.00 1500.01 132 331 1.000 10000.000 0.000 -0.330
55 165.00 1500.01 107 335 1.000 10000.000 0.000 -0.330
56 168.00 1500.01 139 330 1.000 10000.000 0.000 -0.330
57 171.00 1500.01 133 306 1.000 10000.000 0.000 -0.330
58 174.00 1500.01 128 269 1.000 10000.000 0.000 -0.330
59 177.00 1500.01 140 268 1.000 10000.000 0.000 -0.330
60 180.00 1500.01 121 278 1.000 10000.000 0.000 -0.330
61 183.00 1500.01 113 251 1.000 10000.000 0.000 -0.330
62 186.00 1500.01 130 272 1.000 10000.000 0.000 -0.330
63 189.00 1500.01 128 260 1.000 10000.000 0.000 -0.330
64 192.00 1500.01 144 251 1.000 10000.000 0.000 -0.330
65 195.00 1500.01 113 225 1.000 10000.000 0.000 -0.330
66 198.00 1500.01 144 243 1.000 10000.000 0.000 -0.330
67 201.00 1500.01 115 223 1.000 10000.000 0.000 -0.330
68 204.00 1500.01 150 269 1.000 10000.000 0.000 -0.330
69 207.00 1500.01 123 255 1.000 10000.000 0.000 -0.330
70 210.00 1500.01 123 255 1.000 10000.000 0.000 -0.330
71 213.00 1500.01 105 253 1.000 10000.000 0.000 -0.330
72 216.00 1500.01 118 284 1.000 10000.000 0.000 -0.330
73 219.00 1500.01 125 299 1.000 10000.000 0.000 -0.330
74 222.00 1500.01 133 281 1.000 10000.000 0.000 -0.330
75 225.00 1500.01 131 287 1.000 10000.000 0.000 -0.330
76 228.00 1500.01 150 273 1.000 10000.000 0.000 -0.330
77 231.00 1500.01 142 323 1.000 10000.000 0.000 -0.330
78 234.00 1500.01 115 373 1.000 10000.000 0.000 -0.330
79 237.00 1500.01 139 350 1.000 10000.000 0.000 -0.330
80 240.00 1500.01 158 341 1.000 10000.000 0.000 -0.330
81 243.00 1500.01 141 352 1.000 10000.000 0.000 -0.330
82 246.00 1500.01 144 357 1.000 10000.000 0.000 -0.330
83 249.00 1500.01 120 377 1.000 10000.000 0.000 -0.330
84 252.00 1500.01 150 362 1.000 10000.000 0.000 -0.330
85 255.00 1500.01 143 333 1.000 10000.000 0.000 -0.330
86 258.00 1500.01 131 310 1.000 10000.000 0.000 -0.330
87 261.00 1500.01 123 327 1.000 10000.000 0.000 -0.330
88 264.00 1500.01 119 331 1.000 10000.000 0.000 -0.330
89 267.00 1500.01 109 348 1.000 10000.000 0.000 -0.330
90 270.00 1500.01 122 347 1.000 10000.000 0.000 -0.330
91 273.00 1500.01 126 312 1.000 10000.000 0.000 -0.330
92 276.00 1500.01 114 219 1.000 10000.000 0.000 -0.330
93 279.00 1500.01 133 288 1.000 10000.000 0.000 -0.330
94 282.00 1500.01 114 253 1.000 10000.000 0.000 -0.330
95 285.00 1500.01 119 287 1.000 10000.000 0.000 -0.330
96 288.00 1500.01 132 228 1.000 10000.000 0.000 -0.330
97 291.00 1500.01 114 272 1.000 10000.000 0.000 -0.330
98 294.00 1500.01 139 246 1.000 10000.000 0.000 -0.330
99 297.00 1500.01 129 261 1.000 10000.000 0.000 -0.330
100 300.00 1500.01 114 242 1.000 10000.000 0.000 -0.330
101 303.00 1500.01 118 257 1.000 10000.000 0.000 -0.330
102 306.00 1500.01 136 252 1.000 10000.000 0.000 -0.330
103 309.00 1500.01 115 272 1.000 10000.000 0.000 -0.330
104 312.00 1500.01 128 262 1.000 10000.000 0.000 -0.330
105 315.00 1500.01 112 262 1.000 10000.000 0.000 -0.330
106 318.00 1500.01 138 256 1.000 10000.000 0.000 -0.330
107 321.00 1500.01 129 275 1.000 10000.000 0.000 -0.330
108 324.00 1500.01 132 271 1.000 10000.000 0.000 -0.330
109 327.00 1500.01 107 313 1.000 10000.000 0.000 -0.330
110 330.00 1500.01 143 304 1.000 10000.000 0.000 -0.330
111 333.00 1500.01 133 343 1.000 10000.000 0.000 -0.330
112 336.00 1500.01 144 392 1.000 10000.000 0.000 -0.330
113 339.00 1500.01 150 344 1.000 10000.000 0.000 -0.330
114 342.00 1500.01 137 373 1.000 10000.000 0.000 -0.330
115 345.00 1500.01 143 348 1.000 10000.000 0.000 -0.330
116 348.00 1500.01 139 374 1.000 10000.000 0.000 -0.330
117 351.00 1500.01 140 379 1.000 10000.000 0.000 -0.330
118 354.00 1500.01 164 325 1.000 10000.000 0.000 -0.330
119 357.00 1500.01 144 360 1.000 10000.000 0.000 -0.330
120 360.00 1500.01 144 342 1.000 10000.000 0.000 -0.330
121 363.00 1500.01 146 296 1.000 10000.000 0.000 -0.330
122 366.00 1500.01 118 291 1.000 10000.000 0.000 -0.330
123 369.00 1500.01 134 284 1.000 10000.000 0.000 -0.330
124 372.00 1500.01 132 324 1.000 10000.000 0.000 -0.330
125 375.00 1500.01 125 255 1.000 10000.000 0.000 -0.330
126 378.00 1500.01 107 287 1.000 10000.000 0.000 -0.330
127 381.00 1500.01 120 256 1.000 10000.000 0.000 -0.330
128 384.00 1500.01 126 273 1.000 10000.000 0.000 -0.330
129 387.00 1500.01 117 257 1.000 10000.000 0.000 -0.330
130 390.00 1500.01 97 272 1.000 10000.000 0.000 -0.330
131 393.00 1500.01 131 241 1.000 10000.000 0.000 -0.330
132 396.00 1500.01 119 236 1.000 10000.000 0.000 -0.330
133 399.00 1500.01 127 248 1.000 10000.000 0.000 -0.330
134 402.00 1500.01 125 245 1.000 10000.000 0.000 -0.330
