# BinNR microsec tot-time (s)  O-Beam AUX Ampl(V) f(Hz) phase(deg) chi(pos)
0 0.00 1500.01 56 127 1.000 10000.000 0.000 -0.681
1 3.00 1500.01 139 245 1.000 10000.000 0.000 -0.681
2 6.00 1500.01 131 220 1.000 10000.000 0.000 -0.681
3 9.00 1500.01 125 240 1.000 10000.000 0.000 -0.681
4 12.00 1500.01 98 212 1.000 10000.000 0.000 -0.681
5 15.00 1500.01 126 199 1.000 10000.000 0.000 -0.681
6 18.00 1500.01 124 203 1.000 10000.000 0.000 -0.681
7 21.00 1500.01 116 207 1.000 10000.000 0.000 -0.681
8 24.00 1500.01 111 216 1.000 10000.000 0.000 -0.681
9 27.00 1500.01 133 181 1.000 10000.000 0.000 -0.681
10 30.00 1500.01 130 238 1.000 10000.000 0.000 -0.681
11 33.00 1500.01 122 194 1.000 10000.000 0.000 -0.681
12 36.00 1500.01 97 206 1.000 10000.000 0.000 -0.681
13 39.00 1500.01 117 176 1.000 10000.000 0.000 -0.681
14 42.00 1500.01 126 206 1.000 10000.000 0.000 -0.681
15 45.00 1500.01 113 206 1.000 10000.000 0.000 -0.681
16 48.00 1500.01 129 222 1.000 10000.000 0.000 -0.681
17 51.00 1500.01 113 205 1.000 10000.000 0.000 -0.681
18 54.00 1500.01 130 201 1.000 10000.000 0.000 -0.681
19 57.00 1500.01 115 198 1.000 10000.000 0.000 -0.681
20 60.00 1500.01 94 222 1.000 10000.000 0.000 -0.681
21 63.00 1500.01 107 228 1.000 10000.000 0.000 -0.681
22 66.00 1500.01 100 227 1.000 10000.000 0.000 -0.681
23 69.00 1500.01 121 180 1.000 10000.000 0.000 -0.681
24 72.00 1500.01 111 229 1.000 10000.000 0.000 -0.681
25 75.00 1500.01 112 230 1.000 10000.000 0.000 -0.681
26 78.00 1500.01 104 200 1.000 10000.000 0.000 -0.681
27 81.00 1500.01 125 208 1.000 10000.000 0.000 -0.681
28 84.00 1500.01 109 230 1.000 10000.000 0.000 -0.681
29 87.00 1500.01 129 232 1.000 10000.000 0.000 -0.681
30 90.00 1500.01 122 241 1.000 10000.000 0.000 -0.681
31 93.00 1500.01 116 250 1.000 10000.000 0.000 -0.681
32 96.00 1500.01 109 225 1.000 10000.000 0.000 -0.681
33 99.00 1500.01 134 234 1.000 10000.000 0.000 -0.681
34 102.00 1500.01 118 226 1.000 10000.000 0.000 -0.681
35 105.00 1500.01 124 216 1.000 10000.000 0.000 -0.681
36 108.00 1500.01 129 218 1.000 10000.000 0.000 -0.681
37 111.00 1500.01 109 204 1.000 10000.000 0.000 -0.681
38 114.00 1500.01 110 225 1.000 10000.000 0.000 -0.681
39 117.00 1500.01 117 221 1.000 10000.000 0.000 -0.681
40 120.00 1500.01 106 218 1.000 10000.000 0.000 -0.681
41 123.00 1500.01 105 221 1.000 10000.000 0.000 -0.681
42 126.00 1500.01 113 207 1.000 10000.000 0.000 -0.681
43 129.00 1500.01 102 196 1.000 10000.000 0.000 -0.681
44 132.00 1500.01 115 215 1.000 10000.000 0.000 -0.681
45 135.00 1500.01 127 215 1.000 10000.000 0.000 -0.681
46 138.00 1500.01 112 209 1.000 10000.000 0.000 -0.681
47 141.00 1500.01 115 203 1.000 10000.000 0.000 -0.681
48 144.00 1500.01 107 202 1.000 10000.000 0.000 -0.681
49 147.00 1500.01 122 205 1.000 10000.000 0.000 -0.681
50 150.00 1500.01 109 207 1.000 10000.000 0.000 -0.681
51 153.00 1500.01 110 218 1.000 10000.000 0.000 -0.681
52 156.00 1500.01 117 207 1.000 10000.000 0.000 -0.681
53 159.00 1500.01 88 214 1.000 10000.000 0.000 -0.681
54 162.00 1500.01 95 220 1.000 10000.000 0.000 -0.681
55 165.00 1500.01 122 220 1.000 10000.000 0.000 -0.681
56 168.00 1500.01 118 199 1.000 10000.000 0.000 -0.681
57 171.00 1500.01 134 232 1.000 10000.000 0.000 -0.681
58 174.00 1500.01 122 203 1.000 10000.000 0.000 -0.681
59 177.00 1500.01 111 205 1.000 10000.000 0.000 -0.681
60 180.00 1500.01 133 243 1.000 10000.000 0.000 -0.681
61 183.00 1500.01 118 199 1.000 10000.000 0.000 -0.681
62 186.00 1500.01 113 224 1.000 10000.000 0.000 -0.681
63 189.00 1500.01 128 232 1.000 10000.000 0.000 -0.681
64 192.00 1500.01 101 224 1.000 10000.000 0.000 -0.681
65 195.00 1500.01 126 224 1.000 10000.000 0.000 -0.681
66 198.00 1500.01 138 219 1.000 10000.000 0.000 -0.681
67 201.00 1500.01 130 260 1.000 10000.000 0.000 -0.681
68 204.00 1500.01 124 237 1.000 10000.000 0.000 -0.681
69 207.00 1500.01 124 236 1.000 10000.000 0.000 -0.681
70 210.00 1500.01 135 242 1.000 10000.000 0.000 -0.681
71 213.00 1500.01 133 237 1.000 10000.000 0.000 -0.681
72 216.00 1500.01 112 210 1.000 10000.000 0.000 -0.681
73 219.00 1500.01 111 209 1.000 10000.000 0.000 -0.681
74 222.00 1500.01 127 218 1.000 10000.000 0.000 -0.681
75 225.00 1500.01 120 228 1.000 10000.000 0.000 -0.681
76 228.00 1500.01 118 203 1.000 10000.000 0.000 -0.681
77 231.00 1500.01 120 185 1.000 10000.000 0.000 -0.681
78 234.00 1500.01 111 213 1.000 10000.000 0.000 -0.681
79 237.00 1500.01 125 164 1.000 10000.000 0.000 -0.681
80 240.00 1500.01 113 217 1.000 10000.000 0.000 -0.681
81 243.00 1500.01 132 202 1.000 10000.000 0.000 -0.681
82 246.00 1500.01 120 216 1.000 10000.000 0.000 -0.681
83 249.00 1500.01 110 212 1.000 10000.000 0.000 -0.681
84 252.00 1500.01 116 205 1.000 10000.000 0.000 -0.681
85 255.00 1500.01 109 185 1.000 10000.000 0.000 -0.681
86 258.00 1500.01 123 194 1.000 10000.000 0.000 -0.681
87 261.00 1500.01 105 209 1.000 10000.000 0.000 -0.681
88 264.00 1500.01 110 210 1.000 10000.000 0.000 -0.681
89 267.00 1500.01 122 216 1.000 10000.000 0.000 -0.681
90 270.00 1500.01 113 228 1.000 10000.000 0.000 -0.681
91 273.00 1500.01 115 215 1.000 10000.000 0.000 -0.681
92 276.00 1500.01 123 177 1.000 10000.000 0.000 -0.681
93 279.00 1500.01 121 206 1.000 10000.000 0.000 -0.681
94 282.00 1500.01 118 210 1.000 10000.000 0.000 -0.681
95 285.00 1500.01 125 233 1.000 10000.000 0.000 -0.681
96 288.00 1500.01 112 235 1.000 10000.000 0.000 -0.681
97 291.00 1500.01 130 233 1.000 10000.000 0.000 -0.681
98 294.00 1500.01 131 239 1.000 10000.000 0.000 -0.681
99 297.00 1500.01 120 248 1.000 10000.000 0.000 -0.681
100 300.00 1500.01 151 242 1.000 10000.000 0.000 -0.681
101 303.00 1500.01 119 202 1.000 10000.000 0.000 -0.681
102 306.00 1500.01 129 251 1.000 10000.000 0.000 -0.681
103 309.00 1500.01 119 215 1.000 10000.000 0.000 -0.681
104 312.00 1500.01 132 230 1.000 10000.000 0.000 -0.681
105 315.00 1500.01 121 222 1.000 10000.000 0.000 -0.681
106 318.00 1500.01 119 224 1.000 10000.000 0.000 -0.681
107 321.00 1500.01 122 193 1.000 10000.000 0.000 -0.681
108 324.00 1500.01 104 226 1.000 10000.000 0.000 -0.681
109 327.00 1500.01 120 196 1.000 10000.000 0.000 -0.681
110 330.00 1500.01 112 188 1.000 10000.000 0.000 -0.681
111 333.00 1500.01 123 180 1.000 10000.000 0.000 -0.681
112 336.00 1500.01 114 216 1.000 10000.000 0.000 -0.681
113 339.00 1500.01 113 208 1.000 10000.000 0.000 -0.681
114 342.00 1500.01 115 191 1.000 10000.000 0.000 -0.681
115 345.00 1500.01 112 200 1.000 10000.000 0.000 -0.681
116 348.00 1500.01 123 190 1.000 10000.000 0.000 -0.681
117 351.00 1500.01 129 212 1.000 10000.000 0.000 -0.681
118 354.00 1500.01 121 231 1.000 10000.000 0.000 -0.681
119 357.00 1500.01 109 201 1.000 10000.000 0.000 -0.681
120 360.00 1500.01 101 183 1.000 10000.000 0.000 -0.681
121 363.00 1500.01 106 209 1.000 10000.000 0.000 -0.681
122 366.00 1500.01 94 175 1.000 10000.000 0.000 -0.681
123 369.00 1500.01 113 226 1.000 10000.000 0.000 -0.681
124 372.00 1500.01 103 226 1.000 10000.000 0.000 -0.681
125 375.00 1500.01 101 204 1.000 10000.000 0.000 -0.681
126 378.00 1500.01 125 256 1.000 10000.000 0.000 -0.681
127 381.00 1500.01 110 219 1.000 10000.000 0.000 -0.681
128 384.00 1500.01 116 239 1.000 10000.000 0.000 -0.681
129 387.00 1500.01 111 211 1.000 10000.000 0.000 -0.681
130 390.00 1500.01 138 254 1.000 10000.000 0.000 -0.681
131 393.00 1500.01 121 214 1.000 10000.000 0.000 -0.681
132 396.00 1500.01 126 207 1.000 10000.000 0.000 -0.681
133 399.00 1500.01 119 225 1.000 10000.000 0.000 -0.681
134 402.00 1500.01 118 225 1.000 10000.000 0.000 -0.681
