# BinNR microsec tot-time (s)  O-Beam AUX Ampl(V) f(Hz) phase(deg) chi(pos)
0 0.00 1500.00 103 315 1.000 10000.000 0.000 0.319
1 3.00 1500.00 216 651 1.000 10000.000 0.000 0.319
2 6.00 1500.00 241 654 1.000 10000.000 0.000 0.319
3 9.00 1500.00 239 651 1.000 10000.000 0.000 0.319
4 12.00 1500.00 194 703 1.000 10000.000 0.000 0.319
5 15.00 1500.00 199 655 1.000 10000.000 0.000 0.319
6 18.00 1500.00 237 687 1.000 10000.000 0.000 0.319
7 21.00 1500.00 208 652 1.000 10000.000 0.000 0.319
8 24.00 1500.00 198 731 1.000 10000.000 0.000 0.319
9 27.00 1500.00 215 665 1.000 10000.000 0.000 0.319
10 30.00 1500.00 212 692 1.000 10000.000 0.000 0.319
11 33.00 1500.00 234 631 1.000 10000.000 0.000 0.319
12 36.00 1500.00 239 664 1.000 10000.000 0.000 0.319
13 39.00 1500.00 219 672 1.000 10000.000 0.000 0.319
14 42.00 1500.00 246 669 1.000 10000.000 0.000 0.319
15 45.00 1500.00 228 643 1.000 10000.000 0.000 0.319
16 48.00 1500.00 244 681 1.000 10000.000 0.000 0.319
17 51.00 1500.00 226 702 1.000 10000.000 0.000 0.319
18 54.00 1500.00 226 728 1.000 10000.000 0.000 0.319
19 57.00 1500.00 197 644 1.000 10000.000 0.000 0.319
20 60.00 1500.00 233 684 1.000 10000.000 0.000 0.319
21 63.00 1500.00 219 637 1.000 10000.000 0.000 0.319
22 66.00 1500.00 228 708 1.000 10000.000 0.000 0.319
23 69.00 1500.00 231 632 1.000 10000.000 0.000 0.319
24 72.00 1500.00 226 676 1.000 10000.000 0.000 0.319
25 75.00 1500.00 214 604 1.000 10000.000 0.000 0.319
26 78.00 1500.00 224 679 1.000 10000.000 0.000 0.319
27 81.00 1500.00 235 639 1.000 10000.000 0.000 0.319
28 84.00 1500.00 212 679 1.000 10000.000 0.000 0.319
29 87.00 1500.00 207 618 1.000 10000.000 0.000 0.319
30 90.00 1500.00 225 661 1.000 10000.000 0.000 0.319
31 93.00 1500.00 205 632 1.000 10000.000 0.000 0.319
32 96.00 1500.00 221 622 1.000 10000.000 0.000 0.319
33 99.00 1500.00 194 607 1.000 10000.000 0.000 0.319
34 102.00 1500.00 229 643 1.000 10000.000 0.000 0.319
35 105.00 1500.00 211 617 1.000 10000.000 0.000 0.319
36 108.00 1500.00 231 658 1.000 10000.000 0.000 0.319
37 111.00 1500.00 239 649 1.000 10000.000 0.000 0.319
38 114.00 1500.00 217 682 1.000 10000.000 0.000 0.319
39 117.00 1500.00 230 647 1.000 10000.000 0.000 0.319
40 120.00 1500.00 218 730 1.000 10000.000 0.000 0.319
41 123.00 1500.00 212 697 1.000 10000.000 0.000 0.319
42 126.00 1500.00 204 700 1.000 10000.000 0.000 0.319
43 129.00 1500.00 214 650 1.000 10000.000 0.000 0.319
44 132.00 1500.00 220 665 1.000 10000.000 0.000 0.319
45 135.00 1500.00 201 679 1.000 10000.000 0.000 0.319
46 138.00 1500.00 208 681 1.000 10000.000 0.000 0.319
47 141.00 1500.00 232 687 1.000 10000.000 0.000 0.319
48 144.00 1500.00 266 674 1.000 10000.000 0.000 0.319
49 147.00 1500.00 219 688 1.000 10000.000 0.000 0.319
50 150.00 1500.00 256 673 1.000 10000.000 0.000 0.319
51 153.00 1500.00 224 641 1.000 10000.000 0.000 0.319
52 156.00 1500.00 220 705 1.000 10000.000 0.000 0.319
53 159.00 1500.00 191 668 1.000 10000.000 0.000 0.319
54 162.00 1500.00 275 657 1.000 10000.000 0.000 0.319
55 165.00 1500.00 242 693 1.000 10000.000 0.000 0.319
56 168.00 1500.00 233 700 1.000 10000.000 0.000 0.319
57 171.00 1500.00 230 650 1.000 10000.000 0.000 0.319
58 174.00 1500.00 238 672 1.000 10000.000 0.000 0.319
59 177.00 1500.00 217 653 1.000 10000.000 0.000 0.319
60 180.00 1500.00 229 658 1.000 10000.000 0.000 0.319
61 183.00 1500.00 212 701 1.000 10000.000 0.000 0.319
62 186.00 1500.00 214 641 1.000 10000.000 0.000 0.319
63 189.00 1500.00 212 629 1.000 10000.000 0.000 0.319
64 192.00 1500.00 208 663 1.000 10000.000 0.000 0.319
65 195.00 1500.00 216 614 1.000 10000.000 0.000 0.319
66 198.00 1500.00 211 610 1.000 10000.000 0.000 0.319
67 201.00 1500.00 210 636 1.000 10000.000 0.000 0.319
68 204.00 1500.00 232 619 1.000 10000.000 0.000 0.319
69 207.00 1500.00 213 638 1.000 10000.000 0.000 0.319
70 210.00 1500.00 235 655 1.000 10000.000 0.000 0.319
71 213.00 1500.00 237 636 1.000 10000.000 0.000 0.319
72 216.00 1500.00 217 683 1.000 10000.000 0.000 0.319
73 219.00 1500.00 241 617 1.000 10000.000 0.000 0.319
74 222.00 1500.00 235 717 1.000 10000.000 0.000 0.319
75 225.00 1500.00 223 686 1.000 10000.000 0.000 0.319
76 228.00 1500.00 251 690 1.000 10000.000 0.000 0.319
77 231.00 1500.00 235 665 1.000 10000.000 0.000 0.319
78 234.00 1500.00 245 685 1.000 10000.000 0.000 0.319
79 237.00 1500.00 225 672 1.000 10000.000 0.000 0.319
80 240.00 1500.00 249 670 1.000 10000.000 0.000 0.319
81 243.00 1500.00 245 631 1.000 10000.000 0.000 0.319
82 246.00 1500.00 246 672 1.000 10000.000 0.000 0.319
83 249.00 1500.00 249 676 1.000 10000.000 0.000 0.319
84 252.00 1500.00 228 658 1.000 10000.000 0.000 0.319
85 255.00 1500.00 221 706 1.000 10000.000 0.000 0.319
86 258.00 1500.00 234 693 1.000 10000.000 0.000 0.319
87 261.00 1500.00 230 655 1.000 10000.000 0.000 0.319
88 264.00 1500.00 237 670 1.000 10000.000 0.000 0.319
89 267.00 1500.00 227 665 1.000 10000.000 0.000 0.319
90 270.00 1500.00 242 687 1.000 10000.000 0.000 0.319
91 273.00 1500.00 196 667 1.000 10000.000 0.000 0.319
92 276.00 1500.00 230 665 1.000 10000.000 0.000 0.319
93 279.00 1500.00 225 655 1.000 10000.000 0.000 0.319
94 282.00 1500.00 224 619 1.000 10000.000 0.000 0.319
95 285.00 1500.00 189 581 1.000 10000.000 0.000 0.319
96 288.00 1500.00 216 665 1.000 10000.000 0.000 0.319
97 291.00 1500.00 227 646 1.000 10000.000 0.000 0.319
98 294.00 1500.00 203 619 1.000 10000.000 0.000 0.319
99 297.00 1500.00 224 634 1.000 10000.000 0.000 0.319
100 300.00 1500.00 218 639 1.000 10000.000 0.000 0.319
101 303.00 1500.00 210 647 1.000 10000.000 0.000 0.319
102 306.00 1500.00 231 663 1.000 10000.000 0.000 0.319
103 309.00 1500.00 227 636 1.000 10000.000 0.000 0.319
104 312.00 1500.00 223 671 1.000 10000.000 0.000 0.319
105 315.00 1500.00 226 683 1.000 10000.000 0.000 0.319
106 318.00 1500.00 236 686 1.000 10000.000 0.000 0.319
107 321.00 1500.00 257 629 1.000 10000.000 0.000 0.319
108 324.00 1500.00 214 686 1.000 10000.000 0.000 0.319
109 327.00 1500.00 224 626 1.000 10000.000 0.000 0.319
110 330.00 1500.00 215 694 1.000 10000.000 0.000 0.319
111 333.00 1500.00 212 630 1.000 10000.000 0.000 0.319
112 336.00 1500.00 224 648 1.000 10000.000 0.000 0.319
113 339.00 1500.00 230 634 1.000 10000.000 0.000 0.319
114 342.00 1500.00 232 682 1.000 10000.000 0.000 0.319
115 345.00 1500.00 215 646 1.000 10000.000 0.000 0.319
116 348.00 1500.00 234 668 1.000 10000.000 0.000 0.319
117 351.00 1500.00 223 668 1.000 10000.000 0.000 0.319
118 354.00 1500.00 227 683 1.000 10000.000 0.000 0.319
119 357.00 1500.00 247 686 1.000 10000.000 0.000 0.319
120 360.00 1500.00 221 607 1.000 10000.000 0.000 0.319
121 363.00 1500.00 220 712 1.000 10000.000 0.000 0.319
122 366.00 1500.00 259 691 1.000 10000.000 0.000 0.319
123 369.00 1500.00 244 687 1.000 10000.000 0.000 0.319
124 372.00 1500.00 230 696 1.000 10000.000 0.000 0.319
125 375.00 1500.00 218 644 1.000 10000.000 0.000 0.319
126 378.00 1500.00 249 670 1.000 10000.000 0.000 0.319
127 381.00 1500.00 196 667 1.000 10000.000 0.000 0.319
128 384.00 1500.00 238 648 1.000 10000.000 0.000 0.319
129 387.00 1500.00 219 628 1.000 10000.000 0.000 0.319
130 390.00 1500.00 229 657 1.000 10000.000 0.000 0.319
131 393.00 1500.00 195 674 1.000 10000.000 0.000 0.319
132 396.00 1500.00 225 691 1.000 10000.000 0.000 0.319
133 399.00 1500.00 197 642 1.000 10000.000 0.000 0.319
134 402.00 1500.00 226 645 1.000 10000.000 0.000 0.319
