# BinNR microsec tot-time (s)  O-Beam H-beam AUX Ampl(V) f(Hz) phase(deg) chi(pos)
0 0.00 900.00 299 464 4 5.155 2000.000 0.000 0.231
1 25.00 900.00 322 443 2 5.155 2000.000 0.000 0.231
2 50.00 900.00 330 446 0 5.155 2000.000 0.000 0.231
3 75.00 900.00 334 420 2 5.155 2000.000 0.000 0.231
4 100.00 900.00 352 433 2 5.155 2000.000 0.000 0.231
5 125.00 900.00 333 437 1 5.155 2000.000 0.000 0.231
6 150.00 900.00 378 415 1 5.155 2000.000 0.000 0.231
7 175.00 900.00 319 425 2 5.155 2000.000 0.000 0.231
8 200.00 900.00 318 402 1 5.155 2000.000 0.000 0.231
9 225.00 900.00 330 477 3 5.155 2000.000 0.000 0.231
10 250.00 900.00 322 426 3 5.155 2000.000 0.000 0.231
11 275.00 900.00 347 389 1 5.155 2000.000 0.000 0.231
12 300.00 900.00 310 422 3 5.155 2000.000 0.000 0.231
13 325.00 900.00 328 419 3 5.155 2000.000 0.000 0.231
14 350.00 900.00 334 372 1 5.155 2000.000 0.000 0.231
15 375.00 900.00 362 445 1 5.155 2000.000 0.000 0.231
16 400.00 900.00 354 466 4 5.155 2000.000 0.000 0.231
17 425.00 900.00 321 404 3 5.155 2000.000 0.000 0.231
18 450.00 900.00 309 462 2 5.155 2000.000 0.000 0.231
19 475.00 900.00 324 478 1 5.155 2000.000 0.000 0.231
20 500.00 900.00 314 418 0 5.155 2000.000 0.000 0.231
21 525.00 900.00 317 400 0 5.155 2000.000 0.000 0.231
22 550.00 900.00 314 390 4 5.155 2000.000 0.000 0.231
23 575.00 900.00 319 395 0 5.155 2000.000 0.000 0.231
24 600.00 900.00 304 416 0 5.155 2000.000 0.000 0.231
25 625.00 900.00 315 423 1 5.155 2000.000 0.000 0.231
26 650.00 900.00 331 417 2 5.155 2000.000 0.000 0.231
27 675.00 900.00 311 435 3 5.155 2000.000 0.000 0.231
28 700.00 900.00 315 438 2 5.155 2000.000 0.000 0.231
29 725.00 900.00 364 456 4 5.155 2000.000 0.000 0.231
30 750.00 900.00 329 427 3 5.155 2000.000 0.000 0.231
31 775.00 900.00 331 432 0 5.155 2000.000 0.000 0.231
32 800.00 900.00 314 412 1 5.155 2000.000 0.000 0.231
33 825.00 900.00 286 414 1 5.155 2000.000 0.000 0.231
34 850.00 900.00 331 406 0 5.155 2000.000 0.000 0.231
35 875.00 900.00 340 415 2 5.155 2000.000 0.000 0.231
36 900.00 900.00 346 420 1 5.155 2000.000 0.000 0.231
37 925.00 900.00 338 442 0 5.155 2000.000 0.000 0.231
38 950.00 900.00 329 455 1 5.155 2000.000 0.000 0.231
39 975.00 900.00 353 457 2 5.155 2000.000 0.000 0.231
