# BinNR microsec tot-time (s)  O-Beam AUX Ampl(V) f(Hz) phase(deg) chi(pos)
0 0.00 1200.00 64 86 2.000 10000.000 0.000 1.099
1 3.00 1200.00 106 174 2.000 10000.000 0.000 1.099
2 6.00 1200.00 120 165 2.000 10000.000 0.000 1.099
3 9.00 1200.00 116 163 2.000 10000.000 0.000 1.099
4 12.00 1200.00 116 159 2.000 10000.000 0.000 1.099
5 15.00 1200.00 100 141 2.000 10000.000 0.000 1.099
6 18.00 1200.00 109 194 2.000 10000.000 0.000 1.099
7 21.00 1200.00 114 155 2.000 10000.000 0.000 1.099
8 24.00 1200.00 118 159 2.000 10000.000 0.000 1.099
9 27.00 1200.00 110 172 2.000 10000.000 0.000 1.099
10 30.00 1200.00 103 156 2.000 10000.000 0.000 1.099
11 33.00 1200.00 104 192 2.000 10000.000 0.000 1.099
12 36.00 1200.00 120 188 2.000 10000.000 0.000 1.099
13 39.00 1200.00 87 190 2.000 10000.000 0.000 1.099
14 42.00 1200.00 129 241 2.000 10000.000 0.000 1.099
15 45.00 1200.00 97 262 2.000 10000.000 0.000 1.099
16 48.00 1200.00 118 275 2.000 10000.000 0.000 1.099
17 51.00 1200.00 107 315 2.000 10000.000 0.000 1.099
18 54.00 1200.00 119 392 2.000 10000.000 0.000 1.099
19 57.00 1200.00 128 438 2.000 10000.000 0.000 1.099
20 60.00 1200.00 116 414 2.000 10000.000 0.000 1.099
21 63.00 1200.00 140 430 2.000 10000.000 0.000 1.099
22 66.00 1200.00 132 461 2.000 10000.000 0.000 1.099
23 69.00 1200.00 135 503 2.000 10000.000 0.000 1.099
24 72.00 1200.00 159 438 2.000 10000.000 0.000 1.099
25 75.00 1200.00 129 404 2.000 10000.000 0.000 1.099
26 78.00 1200.00 134 396 2.000 10000.000 0.000 1.099
27 81.00 1200.00 123 355 2.000 10000.000 0.000 1.099
28 84.00 1200.00 116 351 2.000 10000.000 0.000 1.099
29 87.00 1200.00 141 284 2.000 10000.000 0.000 1.099
30 90.00 1200.00 117 290 2.000 10000.000 0.000 1.099
31 93.00 1200.00 115 269 2.000 10000.000 0.000 1.099
32 96.00 1200.00 127 224 2.000 10000.000 0.000 1.099
33 99.00 1200.00 102 188 2.000 10000.000 0.000 1.099
34 102.00 1200.00 101 190 2.000 10000.000 0.000 1.099
35 105.00 1200.00 103 194 2.000 10000.000 0.000 1.099
36 108.00 1200.00 106 184 2.000 10000.000 0.000 1.099
37 111.00 1200.00 114 160 2.000 10000.000 0.000 1.099
38 114.00 1200.00 136 167 2.000 10000.000 0.000 1.099
39 117.00 1200.00 130 154 2.000 10000.000 0.000 1.099
40 120.00 1200.00 104 177 2.000 10000.000 0.000 1.099
41 123.00 1200.00 128 154 2.000 10000.000 0.000 1.099
42 126.00 1200.00 114 155 2.000 10000.000 0.000 1.099
43 129.00 1200.00 107 154 2.000 10000.000 0.000 1.099
44 132.00 1200.00 107 171 2.000 10000.000 0.000 1.099
45 135.00 1200.00 103 194 2.000 10000.000 0.000 1.099
46 138.00 1200.00 116 181 2.000 10000.000 0.000 1.099
47 141.00 1200.00 100 225 2.000 10000.000 0.000 1.099
48 144.00 1200.00 118 261 2.000 10000.000 0.000 1.099
49 147.00 1200.00 118 288 2.000 10000.000 0.000 1.099
50 150.00 1200.00 121 324 2.000 10000.000 0.000 1.099
51 153.00 1200.00 135 388 2.000 10000.000 0.000 1.099
52 156.00 1200.00 123 357 2.000 10000.000 0.000 1.099
53 159.00 1200.00 143 435 2.000 10000.000 0.000 1.099
54 162.00 1200.00 139 438 2.000 10000.000 0.000 1.099
55 165.00 1200.00 146 413 2.000 10000.000 0.000 1.099
56 168.00 1200.00 141 444 2.000 10000.000 0.000 1.099
57 171.00 1200.00 143 464 2.000 10000.000 0.000 1.099
58 174.00 1200.00 136 460 2.000 10000.000 0.000 1.099
59 177.00 1200.00 133 396 2.000 10000.000 0.000 1.099
60 180.00 1200.00 140 428 2.000 10000.000 0.000 1.099
61 183.00 1200.00 132 340 2.000 10000.000 0.000 1.099
62 186.00 1200.00 112 324 2.000 10000.000 0.000 1.099
63 189.00 1200.00 108 303 2.000 10000.000 0.000 1.099
64 192.00 1200.00 122 257 2.000 10000.000 0.000 1.099
65 195.00 1200.00 88 235 2.000 10000.000 0.000 1.099
66 198.00 1200.00 103 213 2.000 10000.000 0.000 1.099
67 201.00 1200.00 103 191 2.000 10000.000 0.000 1.099
68 204.00 1200.00 127 168 2.000 10000.000 0.000 1.099
69 207.00 1200.00 115 160 2.000 10000.000 0.000 1.099
70 210.00 1200.00 115 183 2.000 10000.000 0.000 1.099
71 213.00 1200.00 103 166 2.000 10000.000 0.000 1.099
72 216.00 1200.00 117 171 2.000 10000.000 0.000 1.099
73 219.00 1200.00 108 172 2.000 10000.000 0.000 1.099
74 222.00 1200.00 122 153 2.000 10000.000 0.000 1.099
75 225.00 1200.00 151 154 2.000 10000.000 0.000 1.099
76 228.00 1200.00 123 171 2.000 10000.000 0.000 1.099
77 231.00 1200.00 119 141 2.000 10000.000 0.000 1.099
78 234.00 1200.00 94 187 2.000 10000.000 0.000 1.099
79 237.00 1200.00 133 194 2.000 10000.000 0.000 1.099
80 240.00 1200.00 106 230 2.000 10000.000 0.000 1.099
81 243.00 1200.00 105 236 2.000 10000.000 0.000 1.099
82 246.00 1200.00 115 283 2.000 10000.000 0.000 1.099
83 249.00 1200.00 109 321 2.000 10000.000 0.000 1.099
84 252.00 1200.00 130 378 2.000 10000.000 0.000 1.099
85 255.00 1200.00 127 384 2.000 10000.000 0.000 1.099
86 258.00 1200.00 123 421 2.000 10000.000 0.000 1.099
87 261.00 1200.00 158 496 2.000 10000.000 0.000 1.099
88 264.00 1200.00 127 486 2.000 10000.000 0.000 1.099
89 267.00 1200.00 143 476 2.000 10000.000 0.000 1.099
90 270.00 1200.00 142 480 2.000 10000.000 0.000 1.099
91 273.00 1200.00 138 477 2.000 10000.000 0.000 1.099
92 276.00 1200.00 155 464 2.000 10000.000 0.000 1.099
93 279.00 1200.00 131 362 2.000 10000.000 0.000 1.099
94 282.00 1200.00 135 360 2.000 10000.000 0.000 1.099
95 285.00 1200.00 107 325 2.000 10000.000 0.000 1.099
96 288.00 1200.00 122 290 2.000 10000.000 0.000 1.099
97 291.00 1200.00 118 243 2.000 10000.000 0.000 1.099
98 294.00 1200.00 95 225 2.000 10000.000 0.000 1.099
99 297.00 1200.00 108 239 2.000 10000.000 0.000 1.099
100 300.00 1200.00 105 179 2.000 10000.000 0.000 1.099
