# BinNR microsec tot-time (s)  O-Beam AUX Ampl(V) f(Hz) phase(deg) chi(pos)
0 0.00 1200.00 41 88 2.000 10000.000 0.000 -0.901
1 3.00 1200.00 116 212 2.000 10000.000 0.000 -0.901
2 6.00 1200.00 112 219 2.000 10000.000 0.000 -0.901
3 9.00 1200.00 116 190 2.000 10000.000 0.000 -0.901
4 12.00 1200.00 114 186 2.000 10000.000 0.000 -0.901
5 15.00 1200.00 118 179 2.000 10000.000 0.000 -0.901
6 18.00 1200.00 112 168 2.000 10000.000 0.000 -0.901
7 21.00 1200.00 125 170 2.000 10000.000 0.000 -0.901
8 24.00 1200.00 125 196 2.000 10000.000 0.000 -0.901
9 27.00 1200.00 110 188 2.000 10000.000 0.000 -0.901
10 30.00 1200.00 115 200 2.000 10000.000 0.000 -0.901
11 33.00 1200.00 107 209 2.000 10000.000 0.000 -0.901
12 36.00 1200.00 135 242 2.000 10000.000 0.000 -0.901
13 39.00 1200.00 105 267 2.000 10000.000 0.000 -0.901
14 42.00 1200.00 124 268 2.000 10000.000 0.000 -0.901
15 45.00 1200.00 111 353 2.000 10000.000 0.000 -0.901
16 48.00 1200.00 144 353 2.000 10000.000 0.000 -0.901
17 51.00 1200.00 123 441 2.000 10000.000 0.000 -0.901
18 54.00 1200.00 120 446 2.000 10000.000 0.000 -0.901
19 57.00 1200.00 133 444 2.000 10000.000 0.000 -0.901
20 60.00 1200.00 151 513 2.000 10000.000 0.000 -0.901
21 63.00 1200.00 148 504 2.000 10000.000 0.000 -0.901
22 66.00 1200.00 171 509 2.000 10000.000 0.000 -0.901
23 69.00 1200.00 118 524 2.000 10000.000 0.000 -0.901
24 72.00 1200.00 143 512 2.000 10000.000 0.000 -0.901
25 75.00 1200.00 145 492 2.000 10000.000 0.000 -0.901
26 78.00 1200.00 139 497 2.000 10000.000 0.000 -0.901
27 81.00 1200.00 153 477 2.000 10000.000 0.000 -0.901
28 84.00 1200.00 155 424 2.000 10000.000 0.000 -0.901
29 87.00 1200.00 113 372 2.000 10000.000 0.000 -0.901
30 90.00 1200.00 117 325 2.000 10000.000 0.000 -0.901
31 93.00 1200.00 109 291 2.000 10000.000 0.000 -0.901
32 96.00 1200.00 112 271 2.000 10000.000 0.000 -0.901
33 99.00 1200.00 117 263 2.000 10000.000 0.000 -0.901
34 102.00 1200.00 107 237 2.000 10000.000 0.000 -0.901
35 105.00 1200.00 119 189 2.000 10000.000 0.000 -0.901
36 108.00 1200.00 102 225 2.000 10000.000 0.000 -0.901
37 111.00 1200.00 112 205 2.000 10000.000 0.000 -0.901
38 114.00 1200.00 131 169 2.000 10000.000 0.000 -0.901
39 117.00 1200.00 105 188 2.000 10000.000 0.000 -0.901
40 120.00 1200.00 103 186 2.000 10000.000 0.000 -0.901
41 123.00 1200.00 107 183 2.000 10000.000 0.000 -0.901
42 126.00 1200.00 112 221 2.000 10000.000 0.000 -0.901
43 129.00 1200.00 112 188 2.000 10000.000 0.000 -0.901
44 132.00 1200.00 102 199 2.000 10000.000 0.000 -0.901
45 135.00 1200.00 100 226 2.000 10000.000 0.000 -0.901
46 138.00 1200.00 129 247 2.000 10000.000 0.000 -0.901
47 141.00 1200.00 97 259 2.000 10000.000 0.000 -0.901
48 144.00 1200.00 113 318 2.000 10000.000 0.000 -0.901
49 147.00 1200.00 108 372 2.000 10000.000 0.000 -0.901
50 150.00 1200.00 106 408 2.000 10000.000 0.000 -0.901
51 153.00 1200.00 121 444 2.000 10000.000 0.000 -0.901
52 156.00 1200.00 133 430 2.000 10000.000 0.000 -0.901
53 159.00 1200.00 142 478 2.000 10000.000 0.000 -0.901
54 162.00 1200.00 131 545 2.000 10000.000 0.000 -0.901
55 165.00 1200.00 132 505 2.000 10000.000 0.000 -0.901
56 168.00 1200.00 143 537 2.000 10000.000 0.000 -0.901
57 171.00 1200.00 153 510 2.000 10000.000 0.000 -0.901
58 174.00 1200.00 156 508 2.000 10000.000 0.000 -0.901
59 177.00 1200.00 156 482 2.000 10000.000 0.000 -0.901
60 180.00 1200.00 135 455 2.000 10000.000 0.000 -0.901
61 183.00 1200.00 132 450 2.000 10000.000 0.000 -0.901
62 186.00 1200.00 128 392 2.000 10000.000 0.000 -0.901
63 189.00 1200.00 123 356 2.000 10000.000 0.000 -0.901
64 192.00 1200.00 104 306 2.000 10000.000 0.000 -0.901
65 195.00 1200.00 124 230 2.000 10000.000 0.000 -0.901
66 198.00 1200.00 108 300 2.000 10000.000 0.000 -0.901
67 201.00 1200.00 107 235 2.000 10000.000 0.000 -0.901
68 204.00 1200.00 107 222 2.000 10000.000 0.000 -0.901
69 207.00 1200.00 103 190 2.000 10000.000 0.000 -0.901
70 210.00 1200.00 124 182 2.000 10000.000 0.000 -0.901
71 213.00 1200.00 124 198 2.000 10000.000 0.000 -0.901
72 216.00 1200.00 120 184 2.000 10000.000 0.000 -0.901
73 219.00 1200.00 123 172 2.000 10000.000 0.000 -0.901
74 222.00 1200.00 102 183 2.000 10000.000 0.000 -0.901
75 225.00 1200.00 106 202 2.000 10000.000 0.000 -0.901
76 228.00 1200.00 118 170 2.000 10000.000 0.000 -0.901
77 231.00 1200.00 118 189 2.000 10000.000 0.000 -0.901
78 234.00 1200.00 114 198 2.000 10000.000 0.000 -0.901
79 237.00 1200.00 120 287 2.000 10000.000 0.000 -0.901
80 240.00 1200.00 121 270 2.000 10000.000 0.000 -0.901
81 243.00 1200.00 116 319 2.000 10000.000 0.000 -0.901
82 246.00 1200.00 120 347 2.000 10000.000 0.000 -0.901
83 249.00 1200.00 113 415 2.000 10000.000 0.000 -0.901
84 252.00 1200.00 132 488 2.000 10000.000 0.000 -0.901
85 255.00 1200.00 138 476 2.000 10000.000 0.000 -0.901
86 258.00 1200.00 162 500 2.000 10000.000 0.000 -0.901
87 261.00 1200.00 150 498 2.000 10000.000 0.000 -0.901
88 264.00 1200.00 164 549 2.000 10000.000 0.000 -0.901
89 267.00 1200.00 134 531 2.000 10000.000 0.000 -0.901
90 270.00 1200.00 151 556 2.000 10000.000 0.000 -0.901
91 273.00 1200.00 140 538 2.000 10000.000 0.000 -0.901
92 276.00 1200.00 148 506 2.000 10000.000 0.000 -0.901
93 279.00 1200.00 150 466 2.000 10000.000 0.000 -0.901
94 282.00 1200.00 157 448 2.000 10000.000 0.000 -0.901
95 285.00 1200.00 121 391 2.000 10000.000 0.000 -0.901
96 288.00 1200.00 149 326 2.000 10000.000 0.000 -0.901
97 291.00 1200.00 92 342 2.000 10000.000 0.000 -0.901
98 294.00 1200.00 108 302 2.000 10000.000 0.000 -0.901
99 297.00 1200.00 110 267 2.000 10000.000 0.000 -0.901
100 300.00 1200.00 97 195 2.000 10000.000 0.000 -0.901
