# BinNR microsec tot-time (s)  O-Beam AUX Ampl(V) f(Hz) phase(deg) chi(pos)
0 0.00 1200.01 216 498 1.100 10000.000 0.000 -0.099
1 3.00 1200.01 387 988 1.100 10000.000 0.000 -0.099
2 6.00 1200.01 434 979 1.100 10000.000 0.000 -0.099
3 9.00 1200.01 380 917 1.100 10000.000 0.000 -0.099
4 12.00 1200.01 431 928 1.100 10000.000 0.000 -0.099
5 15.00 1200.01 386 929 1.100 10000.000 0.000 -0.099
6 18.00 1200.01 442 962 1.100 10000.000 0.000 -0.099
7 21.00 1200.01 426 999 1.100 10000.000 0.000 -0.099
8 24.00 1200.01 400 945 1.100 10000.000 0.000 -0.099
9 27.00 1200.01 400 987 1.100 10000.000 0.000 -0.099
10 30.00 1200.01 461 1005 1.100 10000.000 0.000 -0.099
11 33.00 1200.01 418 903 1.100 10000.000 0.000 -0.099
12 36.00 1200.01 436 902 1.100 10000.000 0.000 -0.099
13 39.00 1200.01 395 895 1.100 10000.000 0.000 -0.099
14 42.00 1200.01 405 928 1.100 10000.000 0.000 -0.099
15 45.00 1200.01 411 901 1.100 10000.000 0.000 -0.099
16 48.00 1200.01 414 962 1.100 10000.000 0.000 -0.099
17 51.00 1200.01 424 940 1.100 10000.000 0.000 -0.099
18 54.00 1200.01 381 953 1.100 10000.000 0.000 -0.099
19 57.00 1200.01 421 930 1.100 10000.000 0.000 -0.099
20 60.00 1200.01 408 942 1.100 10000.000 0.000 -0.099
21 63.00 1200.01 451 978 1.100 10000.000 0.000 -0.099
22 66.00 1200.01 446 959 1.100 10000.000 0.000 -0.099
23 69.00 1200.01 446 966 1.100 10000.000 0.000 -0.099
24 72.00 1200.01 411 976 1.100 10000.000 0.000 -0.099
25 75.00 1200.01 377 953 1.100 10000.000 0.000 -0.099
26 78.00 1200.01 469 931 1.100 10000.000 0.000 -0.099
27 81.00 1200.01 400 930 1.100 10000.000 0.000 -0.099
28 84.00 1200.01 427 982 1.100 10000.000 0.000 -0.099
29 87.00 1200.01 399 967 1.100 10000.000 0.000 -0.099
30 90.00 1200.01 449 994 1.100 10000.000 0.000 -0.099
31 93.00 1200.01 418 1016 1.100 10000.000 0.000 -0.099
32 96.00 1200.01 443 976 1.100 10000.000 0.000 -0.099
33 99.00 1200.01 424 906 1.100 10000.000 0.000 -0.099
34 102.00 1200.01 447 970 1.100 10000.000 0.000 -0.099
35 105.00 1200.01 412 956 1.100 10000.000 0.000 -0.099
36 108.00 1200.01 411 926 1.100 10000.000 0.000 -0.099
37 111.00 1200.01 368 941 1.100 10000.000 0.000 -0.099
38 114.00 1200.01 429 953 1.100 10000.000 0.000 -0.099
39 117.00 1200.01 422 955 1.100 10000.000 0.000 -0.099
40 120.00 1200.01 377 934 1.100 10000.000 0.000 -0.099
41 123.00 1200.01 402 956 1.100 10000.000 0.000 -0.099
42 126.00 1200.01 419 916 1.100 10000.000 0.000 -0.099
43 129.00 1200.01 393 961 1.100 10000.000 0.000 -0.099
44 132.00 1200.01 446 927 1.100 10000.000 0.000 -0.099
45 135.00 1200.01 424 928 1.100 10000.000 0.000 -0.099
46 138.00 1200.01 425 949 1.100 10000.000 0.000 -0.099
47 141.00 1200.01 421 912 1.100 10000.000 0.000 -0.099
48 144.00 1200.01 435 1012 1.100 10000.000 0.000 -0.099
49 147.00 1200.01 434 927 1.100 10000.000 0.000 -0.099
50 150.00 1200.01 420 879 1.100 10000.000 0.000 -0.099
51 153.00 1200.01 419 954 1.100 10000.000 0.000 -0.099
52 156.00 1200.01 431 1000 1.100 10000.000 0.000 -0.099
53 159.00 1200.01 399 871 1.100 10000.000 0.000 -0.099
54 162.00 1200.01 419 1010 1.100 10000.000 0.000 -0.099
55 165.00 1200.01 454 976 1.100 10000.000 0.000 -0.099
56 168.00 1200.01 438 987 1.100 10000.000 0.000 -0.099
57 171.00 1200.01 392 942 1.100 10000.000 0.000 -0.099
58 174.00 1200.01 423 985 1.100 10000.000 0.000 -0.099
59 177.00 1200.01 403 915 1.100 10000.000 0.000 -0.099
60 180.00 1200.01 443 946 1.100 10000.000 0.000 -0.099
61 183.00 1200.01 432 943 1.100 10000.000 0.000 -0.099
62 186.00 1200.01 433 965 1.100 10000.000 0.000 -0.099
63 189.00 1200.01 396 895 1.100 10000.000 0.000 -0.099
64 192.00 1200.01 409 959 1.100 10000.000 0.000 -0.099
65 195.00 1200.01 407 1009 1.100 10000.000 0.000 -0.099
66 198.00 1200.01 463 966 1.100 10000.000 0.000 -0.099
67 201.00 1200.01 417 956 1.100 10000.000 0.000 -0.099
68 204.00 1200.01 416 947 1.100 10000.000 0.000 -0.099
69 207.00 1200.01 391 964 1.100 10000.000 0.000 -0.099
70 210.00 1200.01 435 904 1.100 10000.000 0.000 -0.099
71 213.00 1200.01 409 943 1.100 10000.000 0.000 -0.099
72 216.00 1200.01 417 953 1.100 10000.000 0.000 -0.099
73 219.00 1200.01 398 955 1.100 10000.000 0.000 -0.099
74 222.00 1200.01 434 967 1.100 10000.000 0.000 -0.099
75 225.00 1200.01 406 929 1.100 10000.000 0.000 -0.099
76 228.00 1200.01 431 950 1.100 10000.000 0.000 -0.099
77 231.00 1200.01 451 932 1.100 10000.000 0.000 -0.099
78 234.00 1200.01 439 967 1.100 10000.000 0.000 -0.099
79 237.00 1200.01 418 903 1.100 10000.000 0.000 -0.099
80 240.00 1200.01 400 919 1.100 10000.000 0.000 -0.099
81 243.00 1200.01 395 939 1.100 10000.000 0.000 -0.099
82 246.00 1200.01 385 923 1.100 10000.000 0.000 -0.099
83 249.00 1200.01 424 907 1.100 10000.000 0.000 -0.099
84 252.00 1200.01 427 923 1.100 10000.000 0.000 -0.099
85 255.00 1200.01 392 898 1.100 10000.000 0.000 -0.099
86 258.00 1200.01 421 991 1.100 10000.000 0.000 -0.099
87 261.00 1200.01 397 923 1.100 10000.000 0.000 -0.099
88 264.00 1200.01 364 964 1.100 10000.000 0.000 -0.099
89 267.00 1200.01 416 890 1.100 10000.000 0.000 -0.099
90 270.00 1200.01 426 977 1.100 10000.000 0.000 -0.099
91 273.00 1200.01 401 954 1.100 10000.000 0.000 -0.099
92 276.00 1200.01 436 921 1.100 10000.000 0.000 -0.099
93 279.00 1200.01 402 979 1.100 10000.000 0.000 -0.099
94 282.00 1200.01 418 1027 1.100 10000.000 0.000 -0.099
95 285.00 1200.01 419 973 1.100 10000.000 0.000 -0.099
96 288.00 1200.01 437 995 1.100 10000.000 0.000 -0.099
97 291.00 1200.01 430 962 1.100 10000.000 0.000 -0.099
98 294.00 1200.01 411 952 1.100 10000.000 0.000 -0.099
99 297.00 1200.01 423 1008 1.100 10000.000 0.000 -0.099
100 300.00 1200.01 412 943 1.100 10000.000 0.000 -0.099
101 303.00 1200.01 338 787 1.100 10000.000 0.000 -0.099
