# BinNR microsec tot-time (s)  O-Beam AUX Ampl(V) f(Hz) phase(deg) chi(pos)
0 0.00 1200.00 73 79 1.100 10000.000 0.000 0.516
1 3.00 1200.00 127 164 1.100 10000.000 0.000 0.516
2 6.00 1200.00 132 149 1.100 10000.000 0.000 0.516
3 9.00 1200.00 153 153 1.100 10000.000 0.000 0.516
4 12.00 1200.00 143 147 1.100 10000.000 0.000 0.516
5 15.00 1200.00 116 162 1.100 10000.000 0.000 0.516
6 18.00 1200.00 145 148 1.100 10000.000 0.000 0.516
7 21.00 1200.00 116 137 1.100 10000.000 0.000 0.516
8 24.00 1200.00 129 153 1.100 10000.000 0.000 0.516
9 27.00 1200.00 104 154 1.100 10000.000 0.000 0.516
10 30.00 1200.00 146 139 1.100 10000.000 0.000 0.516
11 33.00 1200.00 123 164 1.100 10000.000 0.000 0.516
12 36.00 1200.00 132 140 1.100 10000.000 0.000 0.516
13 39.00 1200.00 135 150 1.100 10000.000 0.000 0.516
14 42.00 1200.00 151 161 1.100 10000.000 0.000 0.516
15 45.00 1200.00 131 137 1.100 10000.000 0.000 0.516
16 48.00 1200.00 143 181 1.100 10000.000 0.000 0.516
17 51.00 1200.00 127 156 1.100 10000.000 0.000 0.516
18 54.00 1200.00 129 141 1.100 10000.000 0.000 0.516
19 57.00 1200.00 116 147 1.100 10000.000 0.000 0.516
20 60.00 1200.00 120 165 1.100 10000.000 0.000 0.516
21 63.00 1200.00 130 194 1.100 10000.000 0.000 0.516
22 66.00 1200.00 143 175 1.100 10000.000 0.000 0.516
23 69.00 1200.00 120 169 1.100 10000.000 0.000 0.516
24 72.00 1200.00 100 177 1.100 10000.000 0.000 0.516
25 75.00 1200.00 130 139 1.100 10000.000 0.000 0.516
26 78.00 1200.00 143 185 1.100 10000.000 0.000 0.516
27 81.00 1200.00 129 161 1.100 10000.000 0.000 0.516
28 84.00 1200.00 161 144 1.100 10000.000 0.000 0.516
29 87.00 1200.00 118 142 1.100 10000.000 0.000 0.516
30 90.00 1200.00 128 138 1.100 10000.000 0.000 0.516
31 93.00 1200.00 130 173 1.100 10000.000 0.000 0.516
32 96.00 1200.00 130 172 1.100 10000.000 0.000 0.516
33 99.00 1200.00 142 151 1.100 10000.000 0.000 0.516
34 102.00 1200.00 134 150 1.100 10000.000 0.000 0.516
35 105.00 1200.00 139 154 1.100 10000.000 0.000 0.516
36 108.00 1200.00 126 144 1.100 10000.000 0.000 0.516
37 111.00 1200.00 130 138 1.100 10000.000 0.000 0.516
38 114.00 1200.00 134 166 1.100 10000.000 0.000 0.516
39 117.00 1200.00 131 154 1.100 10000.000 0.000 0.516
40 120.00 1200.00 137 155 1.100 10000.000 0.000 0.516
41 123.00 1200.00 120 128 1.100 10000.000 0.000 0.516
42 126.00 1200.00 135 152 1.100 10000.000 0.000 0.516
43 129.00 1200.00 115 154 1.100 10000.000 0.000 0.516
44 132.00 1200.00 117 165 1.100 10000.000 0.000 0.516
45 135.00 1200.00 135 152 1.100 10000.000 0.000 0.516
46 138.00 1200.00 116 180 1.100 10000.000 0.000 0.516
47 141.00 1200.00 129 156 1.100 10000.000 0.000 0.516
48 144.00 1200.00 131 150 1.100 10000.000 0.000 0.516
49 147.00 1200.00 146 168 1.100 10000.000 0.000 0.516
50 150.00 1200.00 111 151 1.100 10000.000 0.000 0.516
51 153.00 1200.00 132 155 1.100 10000.000 0.000 0.516
52 156.00 1200.00 121 147 1.100 10000.000 0.000 0.516
53 159.00 1200.00 128 123 1.100 10000.000 0.000 0.516
54 162.00 1200.00 129 148 1.100 10000.000 0.000 0.516
55 165.00 1200.00 129 147 1.100 10000.000 0.000 0.516
56 168.00 1200.00 139 147 1.100 10000.000 0.000 0.516
57 171.00 1200.00 166 146 1.100 10000.000 0.000 0.516
58 174.00 1200.00 135 148 1.100 10000.000 0.000 0.516
59 177.00 1200.00 132 143 1.100 10000.000 0.000 0.516
60 180.00 1200.00 134 147 1.100 10000.000 0.000 0.516
61 183.00 1200.00 140 142 1.100 10000.000 0.000 0.516
62 186.00 1200.00 135 168 1.100 10000.000 0.000 0.516
63 189.00 1200.00 124 142 1.100 10000.000 0.000 0.516
64 192.00 1200.00 133 153 1.100 10000.000 0.000 0.516
65 195.00 1200.00 115 129 1.100 10000.000 0.000 0.516
66 198.00 1200.00 139 149 1.100 10000.000 0.000 0.516
67 201.00 1200.00 99 144 1.100 10000.000 0.000 0.516
68 204.00 1200.00 126 160 1.100 10000.000 0.000 0.516
69 207.00 1200.00 115 146 1.100 10000.000 0.000 0.516
70 210.00 1200.00 122 144 1.100 10000.000 0.000 0.516
71 213.00 1200.00 148 148 1.100 10000.000 0.000 0.516
72 216.00 1200.00 126 151 1.100 10000.000 0.000 0.516
73 219.00 1200.00 135 151 1.100 10000.000 0.000 0.516
74 222.00 1200.00 153 168 1.100 10000.000 0.000 0.516
75 225.00 1200.00 113 149 1.100 10000.000 0.000 0.516
76 228.00 1200.00 112 156 1.100 10000.000 0.000 0.516
77 231.00 1200.00 126 194 1.100 10000.000 0.000 0.516
78 234.00 1200.00 129 139 1.100 10000.000 0.000 0.516
79 237.00 1200.00 146 159 1.100 10000.000 0.000 0.516
80 240.00 1200.00 118 156 1.100 10000.000 0.000 0.516
81 243.00 1200.00 117 168 1.100 10000.000 0.000 0.516
82 246.00 1200.00 151 154 1.100 10000.000 0.000 0.516
83 249.00 1200.00 125 172 1.100 10000.000 0.000 0.516
84 252.00 1200.00 120 155 1.100 10000.000 0.000 0.516
85 255.00 1200.00 142 158 1.100 10000.000 0.000 0.516
86 258.00 1200.00 114 152 1.100 10000.000 0.000 0.516
87 261.00 1200.00 126 157 1.100 10000.000 0.000 0.516
88 264.00 1200.00 131 168 1.100 10000.000 0.000 0.516
89 267.00 1200.00 135 169 1.100 10000.000 0.000 0.516
90 270.00 1200.00 145 147 1.100 10000.000 0.000 0.516
91 273.00 1200.00 110 145 1.100 10000.000 0.000 0.516
92 276.00 1200.00 130 165 1.100 10000.000 0.000 0.516
93 279.00 1200.00 134 160 1.100 10000.000 0.000 0.516
94 282.00 1200.00 145 142 1.100 10000.000 0.000 0.516
95 285.00 1200.00 111 179 1.100 10000.000 0.000 0.516
96 288.00 1200.00 125 140 1.100 10000.000 0.000 0.516
97 291.00 1200.00 119 160 1.100 10000.000 0.000 0.516
98 294.00 1200.00 137 163 1.100 10000.000 0.000 0.516
99 297.00 1200.00 139 170 1.100 10000.000 0.000 0.516
100 300.00 1200.00 130 167 1.100 10000.000 0.000 0.516
101 303.00 1200.00 100 139 1.100 10000.000 0.000 0.516
