# BinNR microsec tot-time (s)  O-Beam AUX Ampl(V) f(Hz) phase(deg) chi(pos)
0 0.00 1200.00 61 91 1.100 10000.000 0.000 -1.494
1 3.00 1200.00 124 161 1.100 10000.000 0.000 -1.494
2 6.00 1200.00 126 149 1.100 10000.000 0.000 -1.494
3 9.00 1200.00 132 148 1.100 10000.000 0.000 -1.494
4 12.00 1200.00 116 155 1.100 10000.000 0.000 -1.494
5 15.00 1200.00 100 177 1.100 10000.000 0.000 -1.494
6 18.00 1200.00 121 165 1.100 10000.000 0.000 -1.494
7 21.00 1200.00 119 189 1.100 10000.000 0.000 -1.494
8 24.00 1200.00 122 137 1.100 10000.000 0.000 -1.494
9 27.00 1200.00 116 166 1.100 10000.000 0.000 -1.494
10 30.00 1200.00 124 171 1.100 10000.000 0.000 -1.494
11 33.00 1200.00 117 164 1.100 10000.000 0.000 -1.494
12 36.00 1200.00 118 150 1.100 10000.000 0.000 -1.494
13 39.00 1200.00 125 140 1.100 10000.000 0.000 -1.494
14 42.00 1200.00 103 162 1.100 10000.000 0.000 -1.494
15 45.00 1200.00 108 160 1.100 10000.000 0.000 -1.494
16 48.00 1200.00 129 176 1.100 10000.000 0.000 -1.494
17 51.00 1200.00 124 187 1.100 10000.000 0.000 -1.494
18 54.00 1200.00 114 171 1.100 10000.000 0.000 -1.494
19 57.00 1200.00 133 163 1.100 10000.000 0.000 -1.494
20 60.00 1200.00 143 162 1.100 10000.000 0.000 -1.494
21 63.00 1200.00 130 166 1.100 10000.000 0.000 -1.494
22 66.00 1200.00 115 171 1.100 10000.000 0.000 -1.494
23 69.00 1200.00 119 140 1.100 10000.000 0.000 -1.494
24 72.00 1200.00 107 162 1.100 10000.000 0.000 -1.494
25 75.00 1200.00 132 165 1.100 10000.000 0.000 -1.494
26 78.00 1200.00 133 173 1.100 10000.000 0.000 -1.494
27 81.00 1200.00 137 150 1.100 10000.000 0.000 -1.494
28 84.00 1200.00 116 169 1.100 10000.000 0.000 -1.494
29 87.00 1200.00 137 138 1.100 10000.000 0.000 -1.494
30 90.00 1200.00 104 171 1.100 10000.000 0.000 -1.494
31 93.00 1200.00 139 174 1.100 10000.000 0.000 -1.494
32 96.00 1200.00 138 163 1.100 10000.000 0.000 -1.494
33 99.00 1200.00 130 160 1.100 10000.000 0.000 -1.494
34 102.00 1200.00 122 142 1.100 10000.000 0.000 -1.494
35 105.00 1200.00 139 149 1.100 10000.000 0.000 -1.494
36 108.00 1200.00 146 180 1.100 10000.000 0.000 -1.494
37 111.00 1200.00 133 158 1.100 10000.000 0.000 -1.494
38 114.00 1200.00 140 167 1.100 10000.000 0.000 -1.494
39 117.00 1200.00 116 160 1.100 10000.000 0.000 -1.494
40 120.00 1200.00 116 177 1.100 10000.000 0.000 -1.494
41 123.00 1200.00 125 151 1.100 10000.000 0.000 -1.494
42 126.00 1200.00 138 149 1.100 10000.000 0.000 -1.494
43 129.00 1200.00 127 163 1.100 10000.000 0.000 -1.494
44 132.00 1200.00 107 171 1.100 10000.000 0.000 -1.494
45 135.00 1200.00 124 147 1.100 10000.000 0.000 -1.494
46 138.00 1200.00 121 156 1.100 10000.000 0.000 -1.494
47 141.00 1200.00 114 159 1.100 10000.000 0.000 -1.494
48 144.00 1200.00 137 163 1.100 10000.000 0.000 -1.494
49 147.00 1200.00 119 135 1.100 10000.000 0.000 -1.494
50 150.00 1200.00 142 183 1.100 10000.000 0.000 -1.494
51 153.00 1200.00 121 157 1.100 10000.000 0.000 -1.494
52 156.00 1200.00 139 162 1.100 10000.000 0.000 -1.494
53 159.00 1200.00 113 165 1.100 10000.000 0.000 -1.494
54 162.00 1200.00 138 155 1.100 10000.000 0.000 -1.494
55 165.00 1200.00 102 139 1.100 10000.000 0.000 -1.494
56 168.00 1200.00 124 179 1.100 10000.000 0.000 -1.494
57 171.00 1200.00 138 154 1.100 10000.000 0.000 -1.494
58 174.00 1200.00 138 165 1.100 10000.000 0.000 -1.494
59 177.00 1200.00 118 156 1.100 10000.000 0.000 -1.494
60 180.00 1200.00 122 174 1.100 10000.000 0.000 -1.494
61 183.00 1200.00 153 152 1.100 10000.000 0.000 -1.494
62 186.00 1200.00 118 161 1.100 10000.000 0.000 -1.494
63 189.00 1200.00 142 163 1.100 10000.000 0.000 -1.494
64 192.00 1200.00 143 171 1.100 10000.000 0.000 -1.494
65 195.00 1200.00 125 154 1.100 10000.000 0.000 -1.494
66 198.00 1200.00 112 146 1.100 10000.000 0.000 -1.494
67 201.00 1200.00 134 179 1.100 10000.000 0.000 -1.494
68 204.00 1200.00 129 164 1.100 10000.000 0.000 -1.494
69 207.00 1200.00 141 163 1.100 10000.000 0.000 -1.494
70 210.00 1200.00 104 180 1.100 10000.000 0.000 -1.494
71 213.00 1200.00 124 149 1.100 10000.000 0.000 -1.494
72 216.00 1200.00 115 144 1.100 10000.000 0.000 -1.494
73 219.00 1200.00 142 138 1.100 10000.000 0.000 -1.494
74 222.00 1200.00 132 159 1.100 10000.000 0.000 -1.494
75 225.00 1200.00 109 147 1.100 10000.000 0.000 -1.494
76 228.00 1200.00 133 182 1.100 10000.000 0.000 -1.494
77 231.00 1200.00 118 170 1.100 10000.000 0.000 -1.494
78 234.00 1200.00 147 170 1.100 10000.000 0.000 -1.494
79 237.00 1200.00 129 166 1.100 10000.000 0.000 -1.494
80 240.00 1200.00 122 171 1.100 10000.000 0.000 -1.494
81 243.00 1200.00 120 154 1.100 10000.000 0.000 -1.494
82 246.00 1200.00 122 164 1.100 10000.000 0.000 -1.494
83 249.00 1200.00 126 138 1.100 10000.000 0.000 -1.494
84 252.00 1200.00 118 162 1.100 10000.000 0.000 -1.494
85 255.00 1200.00 127 164 1.100 10000.000 0.000 -1.494
86 258.00 1200.00 151 157 1.100 10000.000 0.000 -1.494
87 261.00 1200.00 145 152 1.100 10000.000 0.000 -1.494
88 264.00 1200.00 106 190 1.100 10000.000 0.000 -1.494
89 267.00 1200.00 118 184 1.100 10000.000 0.000 -1.494
90 270.00 1200.00 116 174 1.100 10000.000 0.000 -1.494
91 273.00 1200.00 131 153 1.100 10000.000 0.000 -1.494
92 276.00 1200.00 115 162 1.100 10000.000 0.000 -1.494
93 279.00 1200.00 123 167 1.100 10000.000 0.000 -1.494
94 282.00 1200.00 122 177 1.100 10000.000 0.000 -1.494
95 285.00 1200.00 130 162 1.100 10000.000 0.000 -1.494
96 288.00 1200.00 124 178 1.100 10000.000 0.000 -1.494
97 291.00 1200.00 123 158 1.100 10000.000 0.000 -1.494
98 294.00 1200.00 123 160 1.100 10000.000 0.000 -1.494
99 297.00 1200.00 123 162 1.100 10000.000 0.000 -1.494
100 300.00 1200.00 144 133 1.100 10000.000 0.000 -1.494
101 303.00 1200.00 104 127 1.100 10000.000 0.000 -1.494
