# BinNR microsec tot-time (s)  O-Beam AUX Ampl(V) f(Hz) phase(deg) chi(pos)
0 0.00 1200.01 137 288 1.100 10000.000 0.000 0.099
1 3.00 1200.01 311 569 1.100 10000.000 0.000 0.099
2 6.00 1200.01 283 617 1.100 10000.000 0.000 0.099
3 9.00 1200.01 291 569 1.100 10000.000 0.000 0.099
4 12.00 1200.01 324 577 1.100 10000.000 0.000 0.099
5 15.00 1200.01 296 562 1.100 10000.000 0.000 0.099
6 18.00 1200.01 301 543 1.100 10000.000 0.000 0.099
7 21.00 1200.01 295 522 1.100 10000.000 0.000 0.099
8 24.00 1200.01 305 549 1.100 10000.000 0.000 0.099
9 27.00 1200.01 301 581 1.100 10000.000 0.000 0.099
10 30.00 1200.01 305 548 1.100 10000.000 0.000 0.099
11 33.00 1200.01 329 543 1.100 10000.000 0.000 0.099
12 36.00 1200.01 294 578 1.100 10000.000 0.000 0.099
13 39.00 1200.01 322 587 1.100 10000.000 0.000 0.099
14 42.00 1200.01 339 563 1.100 10000.000 0.000 0.099
15 45.00 1200.01 296 567 1.100 10000.000 0.000 0.099
16 48.00 1200.01 368 518 1.100 10000.000 0.000 0.099
17 51.00 1200.01 324 568 1.100 10000.000 0.000 0.099
18 54.00 1200.01 338 583 1.100 10000.000 0.000 0.099
19 57.00 1200.01 320 533 1.100 10000.000 0.000 0.099
20 60.00 1200.01 345 574 1.100 10000.000 0.000 0.099
21 63.00 1200.01 293 593 1.100 10000.000 0.000 0.099
22 66.00 1200.01 293 595 1.100 10000.000 0.000 0.099
23 69.00 1200.01 338 539 1.100 10000.000 0.000 0.099
24 72.00 1200.01 308 598 1.100 10000.000 0.000 0.099
25 75.00 1200.01 314 616 1.100 10000.000 0.000 0.099
26 78.00 1200.01 336 622 1.100 10000.000 0.000 0.099
27 81.00 1200.01 335 576 1.100 10000.000 0.000 0.099
28 84.00 1200.01 337 647 1.100 10000.000 0.000 0.099
29 87.00 1200.01 318 580 1.100 10000.000 0.000 0.099
30 90.00 1200.01 329 585 1.100 10000.000 0.000 0.099
31 93.00 1200.01 302 614 1.100 10000.000 0.000 0.099
32 96.00 1200.01 305 615 1.100 10000.000 0.000 0.099
33 99.00 1200.01 329 588 1.100 10000.000 0.000 0.099
34 102.00 1200.01 320 602 1.100 10000.000 0.000 0.099
35 105.00 1200.01 299 567 1.100 10000.000 0.000 0.099
36 108.00 1200.01 308 561 1.100 10000.000 0.000 0.099
37 111.00 1200.01 289 574 1.100 10000.000 0.000 0.099
38 114.00 1200.01 348 576 1.100 10000.000 0.000 0.099
39 117.00 1200.01 281 601 1.100 10000.000 0.000 0.099
40 120.00 1200.01 297 571 1.100 10000.000 0.000 0.099
41 123.00 1200.01 331 579 1.100 10000.000 0.000 0.099
42 126.00 1200.01 289 563 1.100 10000.000 0.000 0.099
43 129.00 1200.01 317 535 1.100 10000.000 0.000 0.099
44 132.00 1200.01 310 528 1.100 10000.000 0.000 0.099
45 135.00 1200.01 296 532 1.100 10000.000 0.000 0.099
46 138.00 1200.01 321 557 1.100 10000.000 0.000 0.099
47 141.00 1200.01 331 563 1.100 10000.000 0.000 0.099
48 144.00 1200.01 319 542 1.100 10000.000 0.000 0.099
49 147.00 1200.01 303 587 1.100 10000.000 0.000 0.099
50 150.00 1200.01 290 555 1.100 10000.000 0.000 0.099
51 153.00 1200.01 312 583 1.100 10000.000 0.000 0.099
52 156.00 1200.01 328 581 1.100 10000.000 0.000 0.099
53 159.00 1200.01 292 552 1.100 10000.000 0.000 0.099
54 162.00 1200.01 299 590 1.100 10000.000 0.000 0.099
55 165.00 1200.01 325 599 1.100 10000.000 0.000 0.099
56 168.00 1200.01 300 580 1.100 10000.000 0.000 0.099
57 171.00 1200.01 299 624 1.100 10000.000 0.000 0.099
58 174.00 1200.01 328 585 1.100 10000.000 0.000 0.099
59 177.00 1200.01 291 614 1.100 10000.000 0.000 0.099
60 180.00 1200.01 306 595 1.100 10000.000 0.000 0.099
61 183.00 1200.01 304 580 1.100 10000.000 0.000 0.099
62 186.00 1200.01 333 639 1.100 10000.000 0.000 0.099
63 189.00 1200.01 316 570 1.100 10000.000 0.000 0.099
64 192.00 1200.01 335 606 1.100 10000.000 0.000 0.099
65 195.00 1200.01 303 604 1.100 10000.000 0.000 0.099
66 198.00 1200.01 328 612 1.100 10000.000 0.000 0.099
67 201.00 1200.01 313 580 1.100 10000.000 0.000 0.099
68 204.00 1200.01 341 594 1.100 10000.000 0.000 0.099
69 207.00 1200.01 284 554 1.100 10000.000 0.000 0.099
70 210.00 1200.01 334 555 1.100 10000.000 0.000 0.099
71 213.00 1200.01 301 568 1.100 10000.000 0.000 0.099
72 216.00 1200.01 318 557 1.100 10000.000 0.000 0.099
73 219.00 1200.01 327 544 1.100 10000.000 0.000 0.099
74 222.00 1200.01 320 607 1.100 10000.000 0.000 0.099
75 225.00 1200.01 282 547 1.100 10000.000 0.000 0.099
76 228.00 1200.01 292 565 1.100 10000.000 0.000 0.099
77 231.00 1200.01 280 556 1.100 10000.000 0.000 0.099
78 234.00 1200.01 284 549 1.100 10000.000 0.000 0.099
79 237.00 1200.01 293 559 1.100 10000.000 0.000 0.099
80 240.00 1200.01 347 595 1.100 10000.000 0.000 0.099
81 243.00 1200.01 309 583 1.100 10000.000 0.000 0.099
82 246.00 1200.01 298 557 1.100 10000.000 0.000 0.099
83 249.00 1200.01 305 602 1.100 10000.000 0.000 0.099
84 252.00 1200.01 300 558 1.100 10000.000 0.000 0.099
85 255.00 1200.01 278 535 1.100 10000.000 0.000 0.099
86 258.00 1200.01 339 578 1.100 10000.000 0.000 0.099
87 261.00 1200.01 296 553 1.100 10000.000 0.000 0.099
88 264.00 1200.01 311 608 1.100 10000.000 0.000 0.099
89 267.00 1200.01 300 608 1.100 10000.000 0.000 0.099
90 270.00 1200.01 339 598 1.100 10000.000 0.000 0.099
91 273.00 1200.01 322 551 1.100 10000.000 0.000 0.099
92 276.00 1200.01 330 608 1.100 10000.000 0.000 0.099
93 279.00 1200.01 298 570 1.100 10000.000 0.000 0.099
94 282.00 1200.01 348 605 1.100 10000.000 0.000 0.099
95 285.00 1200.01 330 593 1.100 10000.000 0.000 0.099
96 288.00 1200.01 340 606 1.100 10000.000 0.000 0.099
97 291.00 1200.01 306 570 1.100 10000.000 0.000 0.099
98 294.00 1200.01 304 603 1.100 10000.000 0.000 0.099
99 297.00 1200.01 303 576 1.100 10000.000 0.000 0.099
100 300.00 1200.01 316 662 1.100 10000.000 0.000 0.099
101 303.00 1200.01 240 483 1.100 10000.000 0.000 0.099
