# BinNR microsec tot-time (s)  O-Beam AUX Ampl(V) f(Hz) phase(deg) chi(pos)
0 0.00 1200.01 218 588 1.100 10000.000 0.000 -0.703
1 3.00 1200.01 385 1260 1.100 10000.000 0.000 -0.703
2 6.00 1200.01 431 1205 1.100 10000.000 0.000 -0.703
3 9.00 1200.01 385 1333 1.100 10000.000 0.000 -0.703
4 12.00 1200.01 435 1394 1.100 10000.000 0.000 -0.703
5 15.00 1200.01 394 1241 1.100 10000.000 0.000 -0.703
6 18.00 1200.01 406 1287 1.100 10000.000 0.000 -0.703
7 21.00 1200.01 445 1272 1.100 10000.000 0.000 -0.703
8 24.00 1200.01 402 1371 1.100 10000.000 0.000 -0.703
9 27.00 1200.01 410 1299 1.100 10000.000 0.000 -0.703
10 30.00 1200.01 407 1311 1.100 10000.000 0.000 -0.703
11 33.00 1200.01 379 1258 1.100 10000.000 0.000 -0.703
12 36.00 1200.01 403 1303 1.100 10000.000 0.000 -0.703
13 39.00 1200.01 392 1286 1.100 10000.000 0.000 -0.703
14 42.00 1200.01 396 1233 1.100 10000.000 0.000 -0.703
15 45.00 1200.01 412 1292 1.100 10000.000 0.000 -0.703
16 48.00 1200.01 419 1304 1.100 10000.000 0.000 -0.703
17 51.00 1200.01 382 1284 1.100 10000.000 0.000 -0.703
18 54.00 1200.01 405 1260 1.100 10000.000 0.000 -0.703
19 57.00 1200.01 431 1311 1.100 10000.000 0.000 -0.703
20 60.00 1200.01 406 1260 1.100 10000.000 0.000 -0.703
21 63.00 1200.01 384 1261 1.100 10000.000 0.000 -0.703
22 66.00 1200.01 390 1292 1.100 10000.000 0.000 -0.703
23 69.00 1200.01 403 1267 1.100 10000.000 0.000 -0.703
24 72.00 1200.01 415 1202 1.100 10000.000 0.000 -0.703
25 75.00 1200.01 397 1322 1.100 10000.000 0.000 -0.703
26 78.00 1200.01 443 1238 1.100 10000.000 0.000 -0.703
27 81.00 1200.01 362 1229 1.100 10000.000 0.000 -0.703
28 84.00 1200.01 364 1289 1.100 10000.000 0.000 -0.703
29 87.00 1200.01 407 1250 1.100 10000.000 0.000 -0.703
30 90.00 1200.01 411 1299 1.100 10000.000 0.000 -0.703
31 93.00 1200.01 344 1257 1.100 10000.000 0.000 -0.703
32 96.00 1200.01 384 1218 1.100 10000.000 0.000 -0.703
33 99.00 1200.01 387 1272 1.100 10000.000 0.000 -0.703
34 102.00 1200.01 433 1261 1.100 10000.000 0.000 -0.703
35 105.00 1200.01 384 1298 1.100 10000.000 0.000 -0.703
36 108.00 1200.01 432 1311 1.100 10000.000 0.000 -0.703
37 111.00 1200.01 383 1264 1.100 10000.000 0.000 -0.703
38 114.00 1200.01 393 1274 1.100 10000.000 0.000 -0.703
39 117.00 1200.01 441 1312 1.100 10000.000 0.000 -0.703
40 120.00 1200.01 409 1263 1.100 10000.000 0.000 -0.703
41 123.00 1200.01 418 1204 1.100 10000.000 0.000 -0.703
42 126.00 1200.01 436 1287 1.100 10000.000 0.000 -0.703
43 129.00 1200.01 379 1305 1.100 10000.000 0.000 -0.703
44 132.00 1200.01 421 1309 1.100 10000.000 0.000 -0.703
45 135.00 1200.01 391 1367 1.100 10000.000 0.000 -0.703
46 138.00 1200.01 380 1254 1.100 10000.000 0.000 -0.703
47 141.00 1200.01 420 1283 1.100 10000.000 0.000 -0.703
48 144.00 1200.01 395 1303 1.100 10000.000 0.000 -0.703
49 147.00 1200.01 418 1240 1.100 10000.000 0.000 -0.703
50 150.00 1200.01 396 1303 1.100 10000.000 0.000 -0.703
51 153.00 1200.01 387 1286 1.100 10000.000 0.000 -0.703
52 156.00 1200.01 408 1311 1.100 10000.000 0.000 -0.703
53 159.00 1200.01 439 1276 1.100 10000.000 0.000 -0.703
54 162.00 1200.01 423 1313 1.100 10000.000 0.000 -0.703
55 165.00 1200.01 416 1251 1.100 10000.000 0.000 -0.703
56 168.00 1200.01 376 1329 1.100 10000.000 0.000 -0.703
57 171.00 1200.01 399 1234 1.100 10000.000 0.000 -0.703
58 174.00 1200.01 399 1340 1.100 10000.000 0.000 -0.703
59 177.00 1200.01 380 1186 1.100 10000.000 0.000 -0.703
60 180.00 1200.01 389 1310 1.100 10000.000 0.000 -0.703
61 183.00 1200.01 402 1283 1.100 10000.000 0.000 -0.703
62 186.00 1200.01 446 1340 1.100 10000.000 0.000 -0.703
63 189.00 1200.01 427 1233 1.100 10000.000 0.000 -0.703
64 192.00 1200.01 415 1224 1.100 10000.000 0.000 -0.703
65 195.00 1200.01 422 1318 1.100 10000.000 0.000 -0.703
66 198.00 1200.01 419 1306 1.100 10000.000 0.000 -0.703
67 201.00 1200.01 367 1230 1.100 10000.000 0.000 -0.703
68 204.00 1200.01 384 1303 1.100 10000.000 0.000 -0.703
69 207.00 1200.01 402 1234 1.100 10000.000 0.000 -0.703
70 210.00 1200.01 413 1226 1.100 10000.000 0.000 -0.703
71 213.00 1200.01 427 1282 1.100 10000.000 0.000 -0.703
72 216.00 1200.01 365 1298 1.100 10000.000 0.000 -0.703
73 219.00 1200.01 417 1313 1.100 10000.000 0.000 -0.703
74 222.00 1200.01 377 1227 1.100 10000.000 0.000 -0.703
75 225.00 1200.01 398 1310 1.100 10000.000 0.000 -0.703
76 228.00 1200.01 414 1329 1.100 10000.000 0.000 -0.703
77 231.00 1200.01 389 1280 1.100 10000.000 0.000 -0.703
78 234.00 1200.01 435 1263 1.100 10000.000 0.000 -0.703
79 237.00 1200.01 415 1269 1.100 10000.000 0.000 -0.703
80 240.00 1200.01 414 1300 1.100 10000.000 0.000 -0.703
81 243.00 1200.01 389 1283 1.100 10000.000 0.000 -0.703
82 246.00 1200.01 389 1250 1.100 10000.000 0.000 -0.703
83 249.00 1200.01 402 1273 1.100 10000.000 0.000 -0.703
84 252.00 1200.01 419 1281 1.100 10000.000 0.000 -0.703
85 255.00 1200.01 411 1260 1.100 10000.000 0.000 -0.703
86 258.00 1200.01 395 1308 1.100 10000.000 0.000 -0.703
87 261.00 1200.01 403 1262 1.100 10000.000 0.000 -0.703
88 264.00 1200.01 395 1263 1.100 10000.000 0.000 -0.703
89 267.00 1200.01 380 1338 1.100 10000.000 0.000 -0.703
90 270.00 1200.01 426 1291 1.100 10000.000 0.000 -0.703
91 273.00 1200.01 383 1226 1.100 10000.000 0.000 -0.703
92 276.00 1200.01 400 1278 1.100 10000.000 0.000 -0.703
93 279.00 1200.01 372 1220 1.100 10000.000 0.000 -0.703
94 282.00 1200.01 388 1350 1.100 10000.000 0.000 -0.703
95 285.00 1200.01 390 1255 1.100 10000.000 0.000 -0.703
96 288.00 1200.01 413 1355 1.100 10000.000 0.000 -0.703
97 291.00 1200.01 430 1277 1.100 10000.000 0.000 -0.703
98 294.00 1200.01 414 1234 1.100 10000.000 0.000 -0.703
99 297.00 1200.01 414 1260 1.100 10000.000 0.000 -0.703
100 300.00 1200.01 422 1280 1.100 10000.000 0.000 -0.703
101 303.00 1200.01 344 1060 1.100 10000.000 0.000 -0.703
