# BinNR microsec tot-time (s)  O-Beam H-beam AUX Ampl(V) f(Hz) phase(deg) chi(pos)
0 0.00 1200.00 60 1265 105 0.000 0.174 3000.000 -1.505
1 25.00 1200.00 67 1239 129 0.000 0.174 3000.000 -1.505
2 50.00 1200.00 61 1220 142 0.000 0.174 3000.000 -1.505
3 75.00 1200.00 57 1228 160 0.000 0.174 3000.000 -1.505
4 100.00 1200.00 51 1235 134 0.000 0.174 3000.000 -1.505
5 125.00 1200.00 68 1207 139 0.000 0.174 3000.000 -1.505
6 150.00 1200.00 65 1220 118 0.000 0.174 3000.000 -1.505
7 175.00 1200.00 72 1244 113 0.000 0.174 3000.000 -1.505
8 200.00 1200.00 82 1269 129 0.000 0.174 3000.000 -1.505
9 225.00 1200.00 70 1284 130 0.000 0.174 3000.000 -1.505
10 250.00 1200.00 67 1250 117 0.000 0.174 3000.000 -1.505
11 275.00 1200.00 77 1217 116 0.000 0.174 3000.000 -1.505
12 300.00 1200.00 72 1292 121 0.000 0.174 3000.000 -1.505
13 325.00 1200.00 77 1283 134 0.000 0.174 3000.000 -1.505
14 350.00 1200.00 66 1280 116 0.000 0.174 3000.000 -1.505
15 375.00 1200.00 55 1201 145 0.000 0.174 3000.000 -1.505
16 400.00 1200.00 61 1267 142 0.000 0.174 3000.000 -1.505
17 425.00 1200.00 71 1161 145 0.000 0.174 3000.000 -1.505
18 450.00 1200.00 69 1234 141 0.000 0.174 3000.000 -1.505
19 475.00 1200.00 66 1215 116 0.000 0.174 3000.000 -1.505
20 500.00 1200.00 72 1216 131 0.000 0.174 3000.000 -1.505
21 525.00 1200.00 89 1223 101 0.000 0.174 3000.000 -1.505
22 550.00 1200.00 84 1250 128 0.000 0.174 3000.000 -1.505
23 575.00 1200.00 74 1205 119 0.000 0.174 3000.000 -1.505
24 600.00 1200.00 84 1227 118 0.000 0.174 3000.000 -1.505
25 625.00 1200.00 82 1263 106 0.000 0.174 3000.000 -1.505
26 650.00 1200.00 59 1242 130 0.000 0.174 3000.000 -1.505
27 675.00 1200.00 61 1212 138 0.000 0.174 3000.000 -1.505
28 700.00 1200.00 62 1230 140 0.000 0.174 3000.000 -1.505
29 725.00 1200.00 54 1189 129 0.000 0.174 3000.000 -1.505
30 750.00 1200.00 60 1221 136 0.000 0.174 3000.000 -1.505
31 775.00 1200.00 74 1291 123 0.000 0.174 3000.000 -1.505
32 800.00 1200.00 67 1292 122 0.000 0.174 3000.000 -1.505
33 825.00 1200.00 73 1222 143 0.000 0.174 3000.000 -1.505
34 850.00 1200.00 86 1273 122 0.000 0.174 3000.000 -1.505
35 875.00 1200.00 74 1274 108 0.000 0.174 3000.000 -1.505
36 900.00 1200.00 85 1211 107 0.000 0.174 3000.000 -1.505
37 925.00 1200.00 70 1255 106 0.000 0.174 3000.000 -1.505
38 950.00 1200.00 68 1263 133 0.000 0.174 3000.000 -1.505
39 975.00 1200.00 73 1168 121 0.000 0.174 3000.000 -1.505
