# BinNR microsec tot-time (s)  O-Beam H-beam AUX Ampl(V) f(Hz) phase(deg) chi(pos)
0 0.00 1200.00 143 1054 269 0.000 0.174 3000.000 0.802
1 25.00 1200.00 117 969 322 0.000 0.174 3000.000 0.802
2 50.00 1200.00 150 975 306 0.000 0.174 3000.000 0.802
3 75.00 1200.00 142 930 303 0.000 0.174 3000.000 0.802
4 100.00 1200.00 122 956 344 0.000 0.174 3000.000 0.802
5 125.00 1200.00 144 982 326 0.000 0.174 3000.000 0.802
6 150.00 1200.00 151 973 279 0.000 0.174 3000.000 0.802
7 175.00 1200.00 170 1021 273 0.000 0.174 3000.000 0.802
8 200.00 1200.00 135 973 264 0.000 0.174 3000.000 0.802
9 225.00 1200.00 170 1055 239 0.000 0.174 3000.000 0.802
10 250.00 1200.00 169 1104 250 0.000 0.174 3000.000 0.802
11 275.00 1200.00 135 1069 247 0.000 0.174 3000.000 0.802
12 300.00 1200.00 138 1011 283 0.000 0.174 3000.000 0.802
13 325.00 1200.00 152 1038 270 0.000 0.174 3000.000 0.802
14 350.00 1200.00 121 1060 288 0.000 0.174 3000.000 0.802
15 375.00 1200.00 107 1022 324 0.000 0.174 3000.000 0.802
16 400.00 1200.00 119 944 328 0.000 0.174 3000.000 0.802
17 425.00 1200.00 132 976 322 0.000 0.174 3000.000 0.802
18 450.00 1200.00 155 972 310 0.000 0.174 3000.000 0.802
19 475.00 1200.00 153 983 312 0.000 0.174 3000.000 0.802
20 500.00 1200.00 124 990 315 0.000 0.174 3000.000 0.802
21 525.00 1200.00 157 1054 280 0.000 0.174 3000.000 0.802
22 550.00 1200.00 155 1042 256 0.000 0.174 3000.000 0.802
23 575.00 1200.00 177 1061 220 0.000 0.174 3000.000 0.802
24 600.00 1200.00 153 1095 259 0.000 0.174 3000.000 0.802
25 625.00 1200.00 142 1106 231 0.000 0.174 3000.000 0.802
26 650.00 1200.00 132 1107 305 0.000 0.174 3000.000 0.802
27 675.00 1200.00 125 1058 303 0.000 0.174 3000.000 0.802
28 700.00 1200.00 113 1022 287 0.000 0.174 3000.000 0.802
29 725.00 1200.00 131 974 325 0.000 0.174 3000.000 0.802
30 750.00 1200.00 122 1003 322 0.000 0.174 3000.000 0.802
31 775.00 1200.00 134 918 284 0.000 0.174 3000.000 0.802
32 800.00 1200.00 160 1032 296 0.000 0.174 3000.000 0.802
33 825.00 1200.00 170 1007 290 0.000 0.174 3000.000 0.802
34 850.00 1200.00 152 1000 271 0.000 0.174 3000.000 0.802
35 875.00 1200.00 162 952 248 0.000 0.174 3000.000 0.802
36 900.00 1200.00 161 1054 278 0.000 0.174 3000.000 0.802
37 925.00 1200.00 156 1057 259 0.000 0.174 3000.000 0.802
38 950.00 1200.00 161 1022 255 0.000 0.174 3000.000 0.802
39 975.00 1200.00 154 1084 255 0.000 0.174 3000.000 0.802
