# BinNR microsec tot-time (s)  O-Beam H-beam AUX Ampl(V) f(Hz) phase(deg) chi(pos)
0 0.00 1200.00 61 1310 117 0.000 0.174 3000.000 0.363
1 25.00 1200.00 68 1254 118 0.000 0.174 3000.000 0.363
2 50.00 1200.00 65 1245 124 0.000 0.174 3000.000 0.363
3 75.00 1200.00 61 1286 110 0.000 0.174 3000.000 0.363
4 100.00 1200.00 53 1264 112 0.000 0.174 3000.000 0.363
5 125.00 1200.00 74 1299 116 0.000 0.174 3000.000 0.363
6 150.00 1200.00 57 1295 102 0.000 0.174 3000.000 0.363
7 175.00 1200.00 74 1269 99 0.000 0.174 3000.000 0.363
8 200.00 1200.00 43 1256 124 0.000 0.174 3000.000 0.363
9 225.00 1200.00 52 1250 115 0.000 0.174 3000.000 0.363
10 250.00 1200.00 53 1235 110 0.000 0.174 3000.000 0.363
11 275.00 1200.00 54 1287 124 0.000 0.174 3000.000 0.363
12 300.00 1200.00 65 1298 104 0.000 0.174 3000.000 0.363
13 325.00 1200.00 68 1260 113 0.000 0.174 3000.000 0.363
14 350.00 1200.00 61 1275 123 0.000 0.174 3000.000 0.363
15 375.00 1200.00 64 1266 103 0.000 0.174 3000.000 0.363
16 400.00 1200.00 57 1278 99 0.000 0.174 3000.000 0.363
17 425.00 1200.00 70 1324 112 0.000 0.174 3000.000 0.363
18 450.00 1200.00 52 1300 132 0.000 0.174 3000.000 0.363
19 475.00 1200.00 62 1230 117 0.000 0.174 3000.000 0.363
20 500.00 1200.00 42 1277 109 0.000 0.174 3000.000 0.363
21 525.00 1200.00 66 1283 132 0.000 0.174 3000.000 0.363
22 550.00 1200.00 44 1252 101 0.000 0.174 3000.000 0.363
23 575.00 1200.00 57 1265 111 0.000 0.174 3000.000 0.363
24 600.00 1200.00 53 1284 98 0.000 0.174 3000.000 0.363
25 625.00 1200.00 47 1275 108 0.000 0.174 3000.000 0.363
26 650.00 1200.00 68 1329 103 0.000 0.174 3000.000 0.363
27 675.00 1200.00 72 1273 117 0.000 0.174 3000.000 0.363
28 700.00 1200.00 60 1232 119 0.000 0.174 3000.000 0.363
29 725.00 1200.00 64 1288 130 0.000 0.174 3000.000 0.363
30 750.00 1200.00 76 1338 104 0.000 0.174 3000.000 0.363
31 775.00 1200.00 59 1343 125 0.000 0.174 3000.000 0.363
32 800.00 1200.00 54 1266 125 0.000 0.174 3000.000 0.363
33 825.00 1200.00 66 1234 115 0.000 0.174 3000.000 0.363
34 850.00 1200.00 62 1350 105 0.000 0.174 3000.000 0.363
35 875.00 1200.00 55 1335 104 0.000 0.174 3000.000 0.363
36 900.00 1200.00 70 1342 95 0.000 0.174 3000.000 0.363
37 925.00 1200.00 55 1246 112 0.000 0.174 3000.000 0.363
38 950.00 1200.00 59 1307 111 0.000 0.174 3000.000 0.363
39 975.00 1200.00 57 1280 115 0.000 0.174 3000.000 0.363
