# BinNR microsec tot-time (s)  O-Beam H-beam AUX Ampl(V) f(Hz) phase(deg) chi(pos)
0 0.00 1200.00 390 622 5 0.000 5.373 2000.000 1.351
1 25.00 1200.00 357 644 1 0.000 5.373 2000.000 1.351
2 50.00 1200.00 293 607 1 0.000 5.373 2000.000 1.351
3 75.00 1200.00 325 652 4 0.000 5.373 2000.000 1.351
4 100.00 1200.00 361 736 3 0.000 5.373 2000.000 1.351
5 125.00 1200.00 460 834 5 0.000 5.373 2000.000 1.351
6 150.00 1200.00 437 876 2 0.000 5.373 2000.000 1.351
7 175.00 1200.00 384 913 4 0.000 5.373 2000.000 1.351
8 200.00 1200.00 340 850 1 0.000 5.373 2000.000 1.351
9 225.00 1200.00 206 854 5 0.000 5.373 2000.000 1.351
10 250.00 1200.00 203 806 1 0.000 5.373 2000.000 1.351
11 275.00 1200.00 151 718 2 0.000 5.373 2000.000 1.351
12 300.00 1200.00 153 651 1 0.000 5.373 2000.000 1.351
13 325.00 1200.00 169 610 4 0.000 5.373 2000.000 1.351
14 350.00 1200.00 175 601 1 0.000 5.373 2000.000 1.351
15 375.00 1200.00 224 638 0 0.000 5.373 2000.000 1.351
16 400.00 1200.00 314 676 3 0.000 5.373 2000.000 1.351
17 425.00 1200.00 410 755 4 0.000 5.373 2000.000 1.351
18 450.00 1200.00 419 697 4 0.000 5.373 2000.000 1.351
19 475.00 1200.00 439 658 1 0.000 5.373 2000.000 1.351
20 500.00 1200.00 392 652 0 0.000 5.373 2000.000 1.351
21 525.00 1200.00 322 604 1 0.000 5.373 2000.000 1.351
22 550.00 1200.00 302 626 4 0.000 5.373 2000.000 1.351
23 575.00 1200.00 323 692 5 0.000 5.373 2000.000 1.351
24 600.00 1200.00 398 784 2 0.000 5.373 2000.000 1.351
25 625.00 1200.00 427 811 2 0.000 5.373 2000.000 1.351
26 650.00 1200.00 481 897 2 0.000 5.373 2000.000 1.351
27 675.00 1200.00 411 886 2 0.000 5.373 2000.000 1.351
28 700.00 1200.00 338 873 1 0.000 5.373 2000.000 1.351
29 725.00 1200.00 253 904 2 0.000 5.373 2000.000 1.351
30 750.00 1200.00 197 826 6 0.000 5.373 2000.000 1.351
31 775.00 1200.00 175 792 3 0.000 5.373 2000.000 1.351
32 800.00 1200.00 159 624 1 0.000 5.373 2000.000 1.351
33 825.00 1200.00 181 603 4 0.000 5.373 2000.000 1.351
34 850.00 1200.00 170 607 3 0.000 5.373 2000.000 1.351
35 875.00 1200.00 216 631 1 0.000 5.373 2000.000 1.351
36 900.00 1200.00 325 663 6 0.000 5.373 2000.000 1.351
37 925.00 1200.00 387 705 4 0.000 5.373 2000.000 1.351
38 950.00 1200.00 474 705 0 0.000 5.373 2000.000 1.351
39 975.00 1200.00 444 710 0 0.000 5.373 2000.000 1.351
