# BinNR microsec tot-time (s)  O-Beam H-beam AUX Ampl(V) f(Hz) phase(deg) chi(pos)
0 0.00 1200.00 204 871 4 0.000 5.373 2000.000 -1.230
1 25.00 1200.00 159 743 1 0.000 5.373 2000.000 -1.230
2 50.00 1200.00 180 594 4 0.000 5.373 2000.000 -1.230
3 75.00 1200.00 194 570 1 0.000 5.373 2000.000 -1.230
4 100.00 1200.00 182 582 5 0.000 5.373 2000.000 -1.230
5 125.00 1200.00 247 721 3 0.000 5.373 2000.000 -1.230
6 150.00 1200.00 375 741 2 0.000 5.373 2000.000 -1.230
7 175.00 1200.00 452 753 3 0.000 5.373 2000.000 -1.230
8 200.00 1200.00 497 769 1 0.000 5.373 2000.000 -1.230
9 225.00 1200.00 427 760 3 0.000 5.373 2000.000 -1.230
10 250.00 1200.00 333 631 7 0.000 5.373 2000.000 -1.230
11 275.00 1200.00 263 559 4 0.000 5.373 2000.000 -1.230
12 300.00 1200.00 295 574 5 0.000 5.373 2000.000 -1.230
13 325.00 1200.00 339 640 2 0.000 5.373 2000.000 -1.230
14 350.00 1200.00 342 746 1 0.000 5.373 2000.000 -1.230
15 375.00 1200.00 429 836 1 0.000 5.373 2000.000 -1.230
16 400.00 1200.00 466 905 2 0.000 5.373 2000.000 -1.230
17 425.00 1200.00 436 850 2 0.000 5.373 2000.000 -1.230
18 450.00 1200.00 345 866 3 0.000 5.373 2000.000 -1.230
19 475.00 1200.00 278 882 1 0.000 5.373 2000.000 -1.230
20 500.00 1200.00 204 785 3 0.000 5.373 2000.000 -1.230
21 525.00 1200.00 158 687 2 0.000 5.373 2000.000 -1.230
22 550.00 1200.00 174 647 5 0.000 5.373 2000.000 -1.230
23 575.00 1200.00 155 588 2 0.000 5.373 2000.000 -1.230
24 600.00 1200.00 184 577 5 0.000 5.373 2000.000 -1.230
25 625.00 1200.00 234 633 1 0.000 5.373 2000.000 -1.230
26 650.00 1200.00 366 722 2 0.000 5.373 2000.000 -1.230
27 675.00 1200.00 402 723 4 0.000 5.373 2000.000 -1.230
28 700.00 1200.00 474 766 3 0.000 5.373 2000.000 -1.230
29 725.00 1200.00 407 683 2 0.000 5.373 2000.000 -1.230
30 750.00 1200.00 368 637 4 0.000 5.373 2000.000 -1.230
31 775.00 1200.00 297 624 5 0.000 5.373 2000.000 -1.230
32 800.00 1200.00 274 583 2 0.000 5.373 2000.000 -1.230
33 825.00 1200.00 290 636 5 0.000 5.373 2000.000 -1.230
34 850.00 1200.00 375 705 0 0.000 5.373 2000.000 -1.230
35 875.00 1200.00 402 809 2 0.000 5.373 2000.000 -1.230
36 900.00 1200.00 491 887 4 0.000 5.373 2000.000 -1.230
37 925.00 1200.00 425 926 1 0.000 5.373 2000.000 -1.230
38 950.00 1200.00 359 865 5 0.000 5.373 2000.000 -1.230
39 975.00 1200.00 247 897 3 0.000 5.373 2000.000 -1.230
