# BinNR microsec tot-time (s)  O-Beam H-beam AUX Ampl(V) f(Hz) phase(deg) chi(pos)
0 0.00 1200.00 421 699 0 0.000 5.373 2000.000 -0.088
1 25.00 1200.00 443 730 3 0.000 5.373 2000.000 -0.088
2 50.00 1200.00 469 834 1 0.000 5.373 2000.000 -0.088
3 75.00 1200.00 449 858 6 0.000 5.373 2000.000 -0.088
4 100.00 1200.00 406 824 4 0.000 5.373 2000.000 -0.088
5 125.00 1200.00 373 784 0 0.000 5.373 2000.000 -0.088
6 150.00 1200.00 257 705 0 0.000 5.373 2000.000 -0.088
7 175.00 1200.00 174 627 1 0.000 5.373 2000.000 -0.088
8 200.00 1200.00 187 647 3 0.000 5.373 2000.000 -0.088
9 225.00 1200.00 221 712 4 0.000 5.373 2000.000 -0.088
10 250.00 1200.00 291 720 5 0.000 5.373 2000.000 -0.088
11 275.00 1200.00 391 845 1 0.000 5.373 2000.000 -0.088
12 300.00 1200.00 413 874 3 0.000 5.373 2000.000 -0.088
13 325.00 1200.00 367 825 6 0.000 5.373 2000.000 -0.088
14 350.00 1200.00 351 745 1 0.000 5.373 2000.000 -0.088
15 375.00 1200.00 244 662 1 0.000 5.373 2000.000 -0.088
16 400.00 1200.00 196 595 5 0.000 5.373 2000.000 -0.088
17 425.00 1200.00 194 577 3 0.000 5.373 2000.000 -0.088
18 450.00 1200.00 236 597 4 0.000 5.373 2000.000 -0.088
19 475.00 1200.00 347 592 2 0.000 5.373 2000.000 -0.088
20 500.00 1200.00 405 678 4 0.000 5.373 2000.000 -0.088
21 525.00 1200.00 435 729 5 0.000 5.373 2000.000 -0.088
22 550.00 1200.00 469 918 1 0.000 5.373 2000.000 -0.088
23 575.00 1200.00 418 897 1 0.000 5.373 2000.000 -0.088
24 600.00 1200.00 408 842 1 0.000 5.373 2000.000 -0.088
25 625.00 1200.00 352 733 0 0.000 5.373 2000.000 -0.088
26 650.00 1200.00 254 664 3 0.000 5.373 2000.000 -0.088
27 675.00 1200.00 175 627 4 0.000 5.373 2000.000 -0.088
28 700.00 1200.00 177 659 2 0.000 5.373 2000.000 -0.088
29 725.00 1200.00 265 684 3 0.000 5.373 2000.000 -0.088
30 750.00 1200.00 337 788 0 0.000 5.373 2000.000 -0.088
31 775.00 1200.00 350 789 2 0.000 5.373 2000.000 -0.088
32 800.00 1200.00 406 864 2 0.000 5.373 2000.000 -0.088
33 825.00 1200.00 399 855 2 0.000 5.373 2000.000 -0.088
34 850.00 1200.00 327 808 2 0.000 5.373 2000.000 -0.088
35 875.00 1200.00 250 656 1 0.000 5.373 2000.000 -0.088
36 900.00 1200.00 185 613 3 0.000 5.373 2000.000 -0.088
37 925.00 1200.00 155 558 2 0.000 5.373 2000.000 -0.088
38 950.00 1200.00 238 603 2 0.000 5.373 2000.000 -0.088
39 975.00 1200.00 332 597 5 0.000 5.373 2000.000 -0.088
