# BinNR microsec tot-time (s)  O-Beam H-beam AUX Ampl(V) f(Hz) phase(deg) chi(pos)
0 0.00 1200.00 191 823 1 0.000 5.373 2000.000 0.374
1 25.00 1200.00 245 872 4 0.000 5.373 2000.000 0.374
2 50.00 1200.00 290 811 0 0.000 5.373 2000.000 0.374
3 75.00 1200.00 250 770 2 0.000 5.373 2000.000 0.374
4 100.00 1200.00 228 652 5 0.000 5.373 2000.000 0.374
5 125.00 1200.00 178 616 2 0.000 5.373 2000.000 0.374
6 150.00 1200.00 160 541 2 0.000 5.373 2000.000 0.374
7 175.00 1200.00 265 565 4 0.000 5.373 2000.000 0.374
8 200.00 1200.00 342 578 1 0.000 5.373 2000.000 0.374
9 225.00 1200.00 440 573 2 0.000 5.373 2000.000 0.374
10 250.00 1200.00 463 560 1 0.000 5.373 2000.000 0.374
11 275.00 1200.00 420 645 2 0.000 5.373 2000.000 0.374
12 300.00 1200.00 461 745 1 0.000 5.373 2000.000 0.374
13 325.00 1200.00 460 842 2 0.000 5.373 2000.000 0.374
14 350.00 1200.00 433 837 0 0.000 5.373 2000.000 0.374
15 375.00 1200.00 406 871 0 0.000 5.373 2000.000 0.374
16 400.00 1200.00 369 785 1 0.000 5.373 2000.000 0.374
17 425.00 1200.00 218 771 4 0.000 5.373 2000.000 0.374
18 450.00 1200.00 164 776 1 0.000 5.373 2000.000 0.374
19 475.00 1200.00 185 791 1 0.000 5.373 2000.000 0.374
20 500.00 1200.00 229 891 3 0.000 5.373 2000.000 0.374
21 525.00 1200.00 261 818 0 0.000 5.373 2000.000 0.374
22 550.00 1200.00 294 883 3 0.000 5.373 2000.000 0.374
23 575.00 1200.00 266 779 1 0.000 5.373 2000.000 0.374
24 600.00 1200.00 225 655 1 0.000 5.373 2000.000 0.374
25 625.00 1200.00 187 630 0 0.000 5.373 2000.000 0.374
26 650.00 1200.00 166 585 3 0.000 5.373 2000.000 0.374
27 675.00 1200.00 247 561 4 0.000 5.373 2000.000 0.374
28 700.00 1200.00 313 607 2 0.000 5.373 2000.000 0.374
29 725.00 1200.00 420 561 0 0.000 5.373 2000.000 0.374
30 750.00 1200.00 424 596 0 0.000 5.373 2000.000 0.374
31 775.00 1200.00 490 683 3 0.000 5.373 2000.000 0.374
32 800.00 1200.00 519 715 0 0.000 5.373 2000.000 0.374
33 825.00 1200.00 440 838 0 0.000 5.373 2000.000 0.374
34 850.00 1200.00 489 874 3 0.000 5.373 2000.000 0.374
35 875.00 1200.00 433 867 5 0.000 5.373 2000.000 0.374
36 900.00 1200.00 347 763 3 0.000 5.373 2000.000 0.374
37 925.00 1200.00 253 767 1 0.000 5.373 2000.000 0.374
38 950.00 1200.00 162 704 6 0.000 5.373 2000.000 0.374
39 975.00 1200.00 167 811 2 0.000 5.373 2000.000 0.374
