# BinNR microsec tot-time (s)  O-Beam H-beam AUX Ampl(V) f(Hz) phase(deg) chi(pos)
0 0.00 1200.00 255 786 2 0.000 5.373 2000.000 -1.077
1 25.00 1200.00 204 636 1 0.000 5.373 2000.000 -1.077
2 50.00 1200.00 191 569 2 0.000 5.373 2000.000 -1.077
3 75.00 1200.00 195 526 2 0.000 5.373 2000.000 -1.077
4 100.00 1200.00 253 631 3 0.000 5.373 2000.000 -1.077
5 125.00 1200.00 315 761 5 0.000 5.373 2000.000 -1.077
6 150.00 1200.00 414 746 6 0.000 5.373 2000.000 -1.077
7 175.00 1200.00 446 861 0 0.000 5.373 2000.000 -1.077
8 200.00 1200.00 471 825 2 0.000 5.373 2000.000 -1.077
9 225.00 1200.00 369 843 0 0.000 5.373 2000.000 -1.077
10 250.00 1200.00 301 709 2 0.000 5.373 2000.000 -1.077
11 275.00 1200.00 235 600 3 0.000 5.373 2000.000 -1.077
12 300.00 1200.00 203 612 2 0.000 5.373 2000.000 -1.077
13 325.00 1200.00 230 562 6 0.000 5.373 2000.000 -1.077
14 350.00 1200.00 266 636 4 0.000 5.373 2000.000 -1.077
15 375.00 1200.00 362 794 2 0.000 5.373 2000.000 -1.077
16 400.00 1200.00 439 839 0 0.000 5.373 2000.000 -1.077
17 425.00 1200.00 488 884 5 0.000 5.373 2000.000 -1.077
18 450.00 1200.00 426 817 6 0.000 5.373 2000.000 -1.077
19 475.00 1200.00 325 850 4 0.000 5.373 2000.000 -1.077
20 500.00 1200.00 253 775 5 0.000 5.373 2000.000 -1.077
21 525.00 1200.00 187 663 5 0.000 5.373 2000.000 -1.077
22 550.00 1200.00 208 590 2 0.000 5.373 2000.000 -1.077
23 575.00 1200.00 182 521 5 0.000 5.373 2000.000 -1.077
24 600.00 1200.00 248 657 2 0.000 5.373 2000.000 -1.077
25 625.00 1200.00 282 728 5 0.000 5.373 2000.000 -1.077
26 650.00 1200.00 417 771 2 0.000 5.373 2000.000 -1.077
27 675.00 1200.00 499 764 2 0.000 5.373 2000.000 -1.077
28 700.00 1200.00 470 764 4 0.000 5.373 2000.000 -1.077
29 725.00 1200.00 349 755 2 0.000 5.373 2000.000 -1.077
30 750.00 1200.00 292 766 4 0.000 5.373 2000.000 -1.077
31 775.00 1200.00 204 636 3 0.000 5.373 2000.000 -1.077
32 800.00 1200.00 192 614 5 0.000 5.373 2000.000 -1.077
33 825.00 1200.00 264 576 2 0.000 5.373 2000.000 -1.077
34 850.00 1200.00 285 675 3 0.000 5.373 2000.000 -1.077
35 875.00 1200.00 348 752 0 0.000 5.373 2000.000 -1.077
36 900.00 1200.00 460 876 3 0.000 5.373 2000.000 -1.077
37 925.00 1200.00 471 929 3 0.000 5.373 2000.000 -1.077
38 950.00 1200.00 416 909 5 0.000 5.373 2000.000 -1.077
39 975.00 1200.00 346 818 4 0.000 5.373 2000.000 -1.077
