# BinNR microsec tot-time (s)  O-Beam AUX Ampl_1(V) f_1(Hz) phase_1(deg) Ampl_2(V) f_2(Hz) phase_2(deg) chi(pos)
0 0.00 1500.01 101 132 0.740 10000.000 0.000 0.610 15000.000 0.000 -0.011
1 3.00 1500.01 184 213 0.740 10000.000 0.000 0.610 15000.000 0.000 -0.011
2 6.00 1500.01 211 207 0.740 10000.000 0.000 0.610 15000.000 0.000 -0.011
3 9.00 1500.01 194 214 0.740 10000.000 0.000 0.610 15000.000 0.000 -0.011
4 12.00 1500.01 218 257 0.740 10000.000 0.000 0.610 15000.000 0.000 -0.011
5 15.00 1500.01 224 245 0.740 10000.000 0.000 0.610 15000.000 0.000 -0.011
6 18.00 1500.01 201 309 0.740 10000.000 0.000 0.610 15000.000 0.000 -0.011
7 21.00 1500.01 215 311 0.740 10000.000 0.000 0.610 15000.000 0.000 -0.011
8 24.00 1500.01 240 362 0.740 10000.000 0.000 0.610 15000.000 0.000 -0.011
9 27.00 1500.01 249 401 0.740 10000.000 0.000 0.610 15000.000 0.000 -0.011
10 30.00 1500.01 270 461 0.740 10000.000 0.000 0.610 15000.000 0.000 -0.011
11 33.00 1500.01 284 413 0.740 10000.000 0.000 0.610 15000.000 0.000 -0.011
12 36.00 1500.01 302 400 0.740 10000.000 0.000 0.610 15000.000 0.000 -0.011
13 39.00 1500.01 282 382 0.740 10000.000 0.000 0.610 15000.000 0.000 -0.011
14 42.00 1500.01 305 392 0.740 10000.000 0.000 0.610 15000.000 0.000 -0.011
15 45.00 1500.01 277 342 0.740 10000.000 0.000 0.610 15000.000 0.000 -0.011
16 48.00 1500.01 292 253 0.740 10000.000 0.000 0.610 15000.000 0.000 -0.011
17 51.00 1500.01 313 255 0.740 10000.000 0.000 0.610 15000.000 0.000 -0.011
18 54.00 1500.01 286 259 0.740 10000.000 0.000 0.610 15000.000 0.000 -0.011
19 57.00 1500.01 298 223 0.740 10000.000 0.000 0.610 15000.000 0.000 -0.011
20 60.00 1500.01 260 268 0.740 10000.000 0.000 0.610 15000.000 0.000 -0.011
21 63.00 1500.01 237 268 0.740 10000.000 0.000 0.610 15000.000 0.000 -0.011
22 66.00 1500.01 228 336 0.740 10000.000 0.000 0.610 15000.000 0.000 -0.011
23 69.00 1500.01 195 408 0.740 10000.000 0.000 0.610 15000.000 0.000 -0.011
24 72.00 1500.01 181 456 0.740 10000.000 0.000 0.610 15000.000 0.000 -0.011
25 75.00 1500.01 181 557 0.740 10000.000 0.000 0.610 15000.000 0.000 -0.011
26 78.00 1500.01 151 560 0.740 10000.000 0.000 0.610 15000.000 0.000 -0.011
27 81.00 1500.01 145 663 0.740 10000.000 0.000 0.610 15000.000 0.000 -0.011
28 84.00 1500.01 147 635 0.740 10000.000 0.000 0.610 15000.000 0.000 -0.011
29 87.00 1500.01 156 669 0.740 10000.000 0.000 0.610 15000.000 0.000 -0.011
30 90.00 1500.01 160 645 0.740 10000.000 0.000 0.610 15000.000 0.000 -0.011
31 93.00 1500.01 166 629 0.740 10000.000 0.000 0.610 15000.000 0.000 -0.011
32 96.00 1500.01 165 575 0.740 10000.000 0.000 0.610 15000.000 0.000 -0.011
33 99.00 1500.01 188 534 0.740 10000.000 0.000 0.610 15000.000 0.000 -0.011
34 102.00 1500.01 207 461 0.740 10000.000 0.000 0.610 15000.000 0.000 -0.011
35 105.00 1500.01 270 423 0.740 10000.000 0.000 0.610 15000.000 0.000 -0.011
36 108.00 1500.01 223 411 0.740 10000.000 0.000 0.610 15000.000 0.000 -0.011
37 111.00 1500.01 295 324 0.740 10000.000 0.000 0.610 15000.000 0.000 -0.011
38 114.00 1500.01 289 328 0.740 10000.000 0.000 0.610 15000.000 0.000 -0.011
39 117.00 1500.01 262 293 0.740 10000.000 0.000 0.610 15000.000 0.000 -0.011
40 120.00 1500.01 305 286 0.740 10000.000 0.000 0.610 15000.000 0.000 -0.011
41 123.00 1500.01 299 285 0.740 10000.000 0.000 0.610 15000.000 0.000 -0.011
42 126.00 1500.01 303 291 0.740 10000.000 0.000 0.610 15000.000 0.000 -0.011
43 129.00 1500.01 311 297 0.740 10000.000 0.000 0.610 15000.000 0.000 -0.011
44 132.00 1500.01 308 359 0.740 10000.000 0.000 0.610 15000.000 0.000 -0.011
45 135.00 1500.01 245 340 0.740 10000.000 0.000 0.610 15000.000 0.000 -0.011
46 138.00 1500.01 261 357 0.740 10000.000 0.000 0.610 15000.000 0.000 -0.011
47 141.00 1500.01 243 376 0.740 10000.000 0.000 0.610 15000.000 0.000 -0.011
48 144.00 1500.01 253 414 0.740 10000.000 0.000 0.610 15000.000 0.000 -0.011
49 147.00 1500.01 228 424 0.740 10000.000 0.000 0.610 15000.000 0.000 -0.011
50 150.00 1500.01 217 392 0.740 10000.000 0.000 0.610 15000.000 0.000 -0.011
51 153.00 1500.01 219 442 0.740 10000.000 0.000 0.610 15000.000 0.000 -0.011
52 156.00 1500.01 214 379 0.740 10000.000 0.000 0.610 15000.000 0.000 -0.011
53 159.00 1500.01 235 326 0.740 10000.000 0.000 0.610 15000.000 0.000 -0.011
54 162.00 1500.01 215 336 0.740 10000.000 0.000 0.610 15000.000 0.000 -0.011
55 165.00 1500.01 193 296 0.740 10000.000 0.000 0.610 15000.000 0.000 -0.011
56 168.00 1500.01 187 348 0.740 10000.000 0.000 0.610 15000.000 0.000 -0.011
57 171.00 1500.01 226 289 0.740 10000.000 0.000 0.610 15000.000 0.000 -0.011
58 174.00 1500.01 217 280 0.740 10000.000 0.000 0.610 15000.000 0.000 -0.011
59 177.00 1500.01 244 275 0.740 10000.000 0.000 0.610 15000.000 0.000 -0.011
60 180.00 1500.01 229 301 0.740 10000.000 0.000 0.610 15000.000 0.000 -0.011
61 183.00 1500.01 231 335 0.740 10000.000 0.000 0.610 15000.000 0.000 -0.011
62 186.00 1500.01 214 391 0.740 10000.000 0.000 0.610 15000.000 0.000 -0.011
63 189.00 1500.01 224 376 0.740 10000.000 0.000 0.610 15000.000 0.000 -0.011
64 192.00 1500.01 227 450 0.740 10000.000 0.000 0.610 15000.000 0.000 -0.011
65 195.00 1500.01 205 503 0.740 10000.000 0.000 0.610 15000.000 0.000 -0.011
66 198.00 1500.01 239 565 0.740 10000.000 0.000 0.610 15000.000 0.000 -0.011
67 201.00 1500.01 209 568 0.740 10000.000 0.000 0.610 15000.000 0.000 -0.011
68 204.00 1500.01 176 683 0.740 10000.000 0.000 0.610 15000.000 0.000 -0.011
69 207.00 1500.01 184 686 0.740 10000.000 0.000 0.610 15000.000 0.000 -0.011
70 210.00 1500.01 192 707 0.740 10000.000 0.000 0.610 15000.000 0.000 -0.011
71 213.00 1500.01 214 661 0.740 10000.000 0.000 0.610 15000.000 0.000 -0.011
72 216.00 1500.01 197 643 0.740 10000.000 0.000 0.610 15000.000 0.000 -0.011
73 219.00 1500.01 196 558 0.740 10000.000 0.000 0.610 15000.000 0.000 -0.011
74 222.00 1500.01 246 554 0.740 10000.000 0.000 0.610 15000.000 0.000 -0.011
75 225.00 1500.01 234 449 0.740 10000.000 0.000 0.610 15000.000 0.000 -0.011
76 228.00 1500.01 251 402 0.740 10000.000 0.000 0.610 15000.000 0.000 -0.011
77 231.00 1500.01 272 323 0.740 10000.000 0.000 0.610 15000.000 0.000 -0.011
78 234.00 1500.01 267 273 0.740 10000.000 0.000 0.610 15000.000 0.000 -0.011
79 237.00 1500.01 299 206 0.740 10000.000 0.000 0.610 15000.000 0.000 -0.011
80 240.00 1500.01 335 174 0.740 10000.000 0.000 0.610 15000.000 0.000 -0.011
81 243.00 1500.01 270 164 0.740 10000.000 0.000 0.610 15000.000 0.000 -0.011
82 246.00 1500.01 309 138 0.740 10000.000 0.000 0.610 15000.000 0.000 -0.011
83 249.00 1500.01 307 170 0.740 10000.000 0.000 0.610 15000.000 0.000 -0.011
84 252.00 1500.01 301 186 0.740 10000.000 0.000 0.610 15000.000 0.000 -0.011
85 255.00 1500.01 295 188 0.740 10000.000 0.000 0.610 15000.000 0.000 -0.011
86 258.00 1500.01 268 195 0.740 10000.000 0.000 0.610 15000.000 0.000 -0.011
87 261.00 1500.01 233 237 0.740 10000.000 0.000 0.610 15000.000 0.000 -0.011
88 264.00 1500.01 246 296 0.740 10000.000 0.000 0.610 15000.000 0.000 -0.011
89 267.00 1500.01 218 370 0.740 10000.000 0.000 0.610 15000.000 0.000 -0.011
90 270.00 1500.01 229 473 0.740 10000.000 0.000 0.610 15000.000 0.000 -0.011
91 273.00 1500.01 182 494 0.740 10000.000 0.000 0.610 15000.000 0.000 -0.011
92 276.00 1500.01 208 573 0.740 10000.000 0.000 0.610 15000.000 0.000 -0.011
93 279.00 1500.01 180 644 0.740 10000.000 0.000 0.610 15000.000 0.000 -0.011
94 282.00 1500.01 188 676 0.740 10000.000 0.000 0.610 15000.000 0.000 -0.011
95 285.00 1500.01 182 697 0.740 10000.000 0.000 0.610 15000.000 0.000 -0.011
96 288.00 1500.01 190 683 0.740 10000.000 0.000 0.610 15000.000 0.000 -0.011
97 291.00 1500.01 181 647 0.740 10000.000 0.000 0.610 15000.000 0.000 -0.011
98 294.00 1500.01 203 590 0.740 10000.000 0.000 0.610 15000.000 0.000 -0.011
99 297.00 1500.01 239 544 0.740 10000.000 0.000 0.610 15000.000 0.000 -0.011
100 300.00 1500.01 230 536 0.740 10000.000 0.000 0.610 15000.000 0.000 -0.011
101 303.00 1500.01 216 477 0.740 10000.000 0.000 0.610 15000.000 0.000 -0.011
102 306.00 1500.01 233 438 0.740 10000.000 0.000 0.610 15000.000 0.000 -0.011
103 309.00 1500.01 226 385 0.740 10000.000 0.000 0.610 15000.000 0.000 -0.011
104 312.00 1500.01 229 327 0.740 10000.000 0.000 0.610 15000.000 0.000 -0.011
105 315.00 1500.01 209 311 0.740 10000.000 0.000 0.610 15000.000 0.000 -0.011
106 318.00 1500.01 246 301 0.740 10000.000 0.000 0.610 15000.000 0.000 -0.011
107 321.00 1500.01 184 298 0.740 10000.000 0.000 0.610 15000.000 0.000 -0.011
108 324.00 1500.01 205 292 0.740 10000.000 0.000 0.610 15000.000 0.000 -0.011
109 327.00 1500.01 166 297 0.740 10000.000 0.000 0.610 15000.000 0.000 -0.011
110 330.00 1500.01 214 330 0.740 10000.000 0.000 0.610 15000.000 0.000 -0.011
111 333.00 1500.01 217 298 0.740 10000.000 0.000 0.610 15000.000 0.000 -0.011
112 336.00 1500.01 188 335 0.740 10000.000 0.000 0.610 15000.000 0.000 -0.011
113 339.00 1500.01 226 345 0.740 10000.000 0.000 0.610 15000.000 0.000 -0.011
114 342.00 1500.01 259 397 0.740 10000.000 0.000 0.610 15000.000 0.000 -0.011
115 345.00 1500.01 269 386 0.740 10000.000 0.000 0.610 15000.000 0.000 -0.011
116 348.00 1500.01 307 435 0.740 10000.000 0.000 0.610 15000.000 0.000 -0.011
117 351.00 1500.01 307 378 0.740 10000.000 0.000 0.610 15000.000 0.000 -0.011
118 354.00 1500.01 294 368 0.740 10000.000 0.000 0.610 15000.000 0.000 -0.011
119 357.00 1500.01 285 365 0.740 10000.000 0.000 0.610 15000.000 0.000 -0.011
120 360.00 1500.01 313 352 0.740 10000.000 0.000 0.610 15000.000 0.000 -0.011
121 363.00 1500.01 285 327 0.740 10000.000 0.000 0.610 15000.000 0.000 -0.011
122 366.00 1500.01 287 317 0.740 10000.000 0.000 0.610 15000.000 0.000 -0.011
123 369.00 1500.01 244 287 0.740 10000.000 0.000 0.610 15000.000 0.000 -0.011
124 372.00 1500.01 260 292 0.740 10000.000 0.000 0.610 15000.000 0.000 -0.011
125 375.00 1500.01 251 287 0.740 10000.000 0.000 0.610 15000.000 0.000 -0.011
126 378.00 1500.01 226 297 0.740 10000.000 0.000 0.610 15000.000 0.000 -0.011
127 381.00 1500.01 238 307 0.740 10000.000 0.000 0.610 15000.000 0.000 -0.011
128 384.00 1500.01 214 368 0.740 10000.000 0.000 0.610 15000.000 0.000 -0.011
129 387.00 1500.01 212 390 0.740 10000.000 0.000 0.610 15000.000 0.000 -0.011
130 390.00 1500.01 197 421 0.740 10000.000 0.000 0.610 15000.000 0.000 -0.011
131 393.00 1500.01 217 524 0.740 10000.000 0.000 0.610 15000.000 0.000 -0.011
132 396.00 1500.01 204 562 0.740 10000.000 0.000 0.610 15000.000 0.000 -0.011
133 399.00 1500.01 191 559 0.740 10000.000 0.000 0.610 15000.000 0.000 -0.011
134 402.00 1500.01 227 628 0.740 10000.000 0.000 0.610 15000.000 0.000 -0.011
135 405.00 1500.01 205 629 0.740 10000.000 0.000 0.610 15000.000 0.000 -0.011
136 408.00 1500.01 210 673 0.740 10000.000 0.000 0.610 15000.000 0.000 -0.011
137 411.00 1500.01 222 655 0.740 10000.000 0.000 0.610 15000.000 0.000 -0.011
138 414.00 1500.01 233 642 0.740 10000.000 0.000 0.610 15000.000 0.000 -0.011
139 417.00 1500.01 220 606 0.740 10000.000 0.000 0.610 15000.000 0.000 -0.011
140 420.00 1500.01 214 565 0.740 10000.000 0.000 0.610 15000.000 0.000 -0.011
141 423.00 1500.01 233 479 0.740 10000.000 0.000 0.610 15000.000 0.000 -0.011
142 426.00 1500.01 221 468 0.740 10000.000 0.000 0.610 15000.000 0.000 -0.011
143 429.00 1500.01 216 350 0.740 10000.000 0.000 0.610 15000.000 0.000 -0.011
144 432.00 1500.01 202 288 0.740 10000.000 0.000 0.610 15000.000 0.000 -0.011
