# BinNR microsec tot-time (s)  O-Beam AUX Ampl_1(V) f_1(Hz) phase_1(deg) Ampl_2(V) f_2(Hz) phase_2(deg) chi(pos)
0 0.00 1500.01 89 309 0.740 10000.000 0.000 0.610 15000.000 0.000 -1.340
1 3.00 1500.01 197 654 0.740 10000.000 0.000 0.610 15000.000 0.000 -1.340
2 6.00 1500.01 173 704 0.740 10000.000 0.000 0.610 15000.000 0.000 -1.340
3 9.00 1500.01 172 702 0.740 10000.000 0.000 0.610 15000.000 0.000 -1.340
4 12.00 1500.01 175 690 0.740 10000.000 0.000 0.610 15000.000 0.000 -1.340
5 15.00 1500.01 200 644 0.740 10000.000 0.000 0.610 15000.000 0.000 -1.340
6 18.00 1500.01 173 638 0.740 10000.000 0.000 0.610 15000.000 0.000 -1.340
7 21.00 1500.01 159 569 0.740 10000.000 0.000 0.610 15000.000 0.000 -1.340
8 24.00 1500.01 165 541 0.740 10000.000 0.000 0.610 15000.000 0.000 -1.340
9 27.00 1500.01 148 488 0.740 10000.000 0.000 0.610 15000.000 0.000 -1.340
10 30.00 1500.01 115 469 0.740 10000.000 0.000 0.610 15000.000 0.000 -1.340
11 33.00 1500.01 125 464 0.740 10000.000 0.000 0.610 15000.000 0.000 -1.340
12 36.00 1500.01 107 479 0.740 10000.000 0.000 0.610 15000.000 0.000 -1.340
13 39.00 1500.01 119 459 0.740 10000.000 0.000 0.610 15000.000 0.000 -1.340
14 42.00 1500.01 103 510 0.740 10000.000 0.000 0.610 15000.000 0.000 -1.340
15 45.00 1500.01 113 511 0.740 10000.000 0.000 0.610 15000.000 0.000 -1.340
16 48.00 1500.01 119 617 0.740 10000.000 0.000 0.610 15000.000 0.000 -1.340
17 51.00 1500.01 135 661 0.740 10000.000 0.000 0.610 15000.000 0.000 -1.340
18 54.00 1500.01 121 692 0.740 10000.000 0.000 0.610 15000.000 0.000 -1.340
19 57.00 1500.01 104 619 0.740 10000.000 0.000 0.610 15000.000 0.000 -1.340
20 60.00 1500.01 144 661 0.740 10000.000 0.000 0.610 15000.000 0.000 -1.340
21 63.00 1500.01 154 656 0.740 10000.000 0.000 0.610 15000.000 0.000 -1.340
22 66.00 1500.01 175 565 0.740 10000.000 0.000 0.610 15000.000 0.000 -1.340
23 69.00 1500.01 208 488 0.740 10000.000 0.000 0.610 15000.000 0.000 -1.340
24 72.00 1500.01 170 424 0.740 10000.000 0.000 0.610 15000.000 0.000 -1.340
25 75.00 1500.01 211 380 0.740 10000.000 0.000 0.610 15000.000 0.000 -1.340
26 78.00 1500.01 224 316 0.740 10000.000 0.000 0.610 15000.000 0.000 -1.340
27 81.00 1500.01 236 252 0.740 10000.000 0.000 0.610 15000.000 0.000 -1.340
28 84.00 1500.01 211 256 0.740 10000.000 0.000 0.610 15000.000 0.000 -1.340
29 87.00 1500.01 222 272 0.740 10000.000 0.000 0.610 15000.000 0.000 -1.340
30 90.00 1500.01 243 243 0.740 10000.000 0.000 0.610 15000.000 0.000 -1.340
31 93.00 1500.01 197 276 0.740 10000.000 0.000 0.610 15000.000 0.000 -1.340
32 96.00 1500.01 208 332 0.740 10000.000 0.000 0.610 15000.000 0.000 -1.340
33 99.00 1500.01 179 374 0.740 10000.000 0.000 0.610 15000.000 0.000 -1.340
34 102.00 1500.01 201 414 0.740 10000.000 0.000 0.610 15000.000 0.000 -1.340
35 105.00 1500.01 135 459 0.740 10000.000 0.000 0.610 15000.000 0.000 -1.340
36 108.00 1500.01 142 516 0.740 10000.000 0.000 0.610 15000.000 0.000 -1.340
37 111.00 1500.01 139 530 0.740 10000.000 0.000 0.610 15000.000 0.000 -1.340
38 114.00 1500.01 144 549 0.740 10000.000 0.000 0.610 15000.000 0.000 -1.340
39 117.00 1500.01 129 573 0.740 10000.000 0.000 0.610 15000.000 0.000 -1.340
40 120.00 1500.01 117 601 0.740 10000.000 0.000 0.610 15000.000 0.000 -1.340
41 123.00 1500.01 128 535 0.740 10000.000 0.000 0.610 15000.000 0.000 -1.340
42 126.00 1500.01 103 616 0.740 10000.000 0.000 0.610 15000.000 0.000 -1.340
43 129.00 1500.01 110 541 0.740 10000.000 0.000 0.610 15000.000 0.000 -1.340
44 132.00 1500.01 115 563 0.740 10000.000 0.000 0.610 15000.000 0.000 -1.340
45 135.00 1500.01 124 487 0.740 10000.000 0.000 0.610 15000.000 0.000 -1.340
46 138.00 1500.01 146 495 0.740 10000.000 0.000 0.610 15000.000 0.000 -1.340
47 141.00 1500.01 143 474 0.740 10000.000 0.000 0.610 15000.000 0.000 -1.340
48 144.00 1500.01 160 469 0.740 10000.000 0.000 0.610 15000.000 0.000 -1.340
49 147.00 1500.01 175 448 0.740 10000.000 0.000 0.610 15000.000 0.000 -1.340
50 150.00 1500.01 128 416 0.740 10000.000 0.000 0.610 15000.000 0.000 -1.340
51 153.00 1500.01 168 490 0.740 10000.000 0.000 0.610 15000.000 0.000 -1.340
52 156.00 1500.01 156 507 0.740 10000.000 0.000 0.610 15000.000 0.000 -1.340
53 159.00 1500.01 172 567 0.740 10000.000 0.000 0.610 15000.000 0.000 -1.340
54 162.00 1500.01 175 588 0.740 10000.000 0.000 0.610 15000.000 0.000 -1.340
55 165.00 1500.01 163 523 0.740 10000.000 0.000 0.610 15000.000 0.000 -1.340
56 168.00 1500.01 195 615 0.740 10000.000 0.000 0.610 15000.000 0.000 -1.340
57 171.00 1500.01 155 586 0.740 10000.000 0.000 0.610 15000.000 0.000 -1.340
58 174.00 1500.01 155 624 0.740 10000.000 0.000 0.610 15000.000 0.000 -1.340
59 177.00 1500.01 128 628 0.740 10000.000 0.000 0.610 15000.000 0.000 -1.340
60 180.00 1500.01 162 625 0.740 10000.000 0.000 0.610 15000.000 0.000 -1.340
61 183.00 1500.01 149 555 0.740 10000.000 0.000 0.610 15000.000 0.000 -1.340
62 186.00 1500.01 155 557 0.740 10000.000 0.000 0.610 15000.000 0.000 -1.340
63 189.00 1500.01 156 480 0.740 10000.000 0.000 0.610 15000.000 0.000 -1.340
64 192.00 1500.01 169 411 0.740 10000.000 0.000 0.610 15000.000 0.000 -1.340
65 195.00 1500.01 150 365 0.740 10000.000 0.000 0.610 15000.000 0.000 -1.340
66 198.00 1500.01 179 301 0.740 10000.000 0.000 0.610 15000.000 0.000 -1.340
67 201.00 1500.01 163 279 0.740 10000.000 0.000 0.610 15000.000 0.000 -1.340
68 204.00 1500.01 161 260 0.740 10000.000 0.000 0.610 15000.000 0.000 -1.340
69 207.00 1500.01 190 227 0.740 10000.000 0.000 0.610 15000.000 0.000 -1.340
70 210.00 1500.01 186 244 0.740 10000.000 0.000 0.610 15000.000 0.000 -1.340
71 213.00 1500.01 180 236 0.740 10000.000 0.000 0.610 15000.000 0.000 -1.340
72 216.00 1500.01 147 222 0.740 10000.000 0.000 0.610 15000.000 0.000 -1.340
73 219.00 1500.01 164 311 0.740 10000.000 0.000 0.610 15000.000 0.000 -1.340
74 222.00 1500.01 174 316 0.740 10000.000 0.000 0.610 15000.000 0.000 -1.340
75 225.00 1500.01 164 389 0.740 10000.000 0.000 0.610 15000.000 0.000 -1.340
76 228.00 1500.01 123 498 0.740 10000.000 0.000 0.610 15000.000 0.000 -1.340
77 231.00 1500.01 135 553 0.740 10000.000 0.000 0.610 15000.000 0.000 -1.340
78 234.00 1500.01 132 647 0.740 10000.000 0.000 0.610 15000.000 0.000 -1.340
79 237.00 1500.01 94 674 0.740 10000.000 0.000 0.610 15000.000 0.000 -1.340
80 240.00 1500.01 125 765 0.740 10000.000 0.000 0.610 15000.000 0.000 -1.340
81 243.00 1500.01 112 765 0.740 10000.000 0.000 0.610 15000.000 0.000 -1.340
82 246.00 1500.01 104 864 0.740 10000.000 0.000 0.610 15000.000 0.000 -1.340
83 249.00 1500.01 102 834 0.740 10000.000 0.000 0.610 15000.000 0.000 -1.340
84 252.00 1500.01 135 793 0.740 10000.000 0.000 0.610 15000.000 0.000 -1.340
85 255.00 1500.01 141 801 0.740 10000.000 0.000 0.610 15000.000 0.000 -1.340
86 258.00 1500.01 123 717 0.740 10000.000 0.000 0.610 15000.000 0.000 -1.340
87 261.00 1500.01 136 651 0.740 10000.000 0.000 0.610 15000.000 0.000 -1.340
88 264.00 1500.01 125 593 0.740 10000.000 0.000 0.610 15000.000 0.000 -1.340
89 267.00 1500.01 160 532 0.740 10000.000 0.000 0.610 15000.000 0.000 -1.340
90 270.00 1500.01 174 407 0.740 10000.000 0.000 0.610 15000.000 0.000 -1.340
91 273.00 1500.01 205 360 0.740 10000.000 0.000 0.610 15000.000 0.000 -1.340
92 276.00 1500.01 221 299 0.740 10000.000 0.000 0.610 15000.000 0.000 -1.340
93 279.00 1500.01 201 274 0.740 10000.000 0.000 0.610 15000.000 0.000 -1.340
94 282.00 1500.01 204 301 0.740 10000.000 0.000 0.610 15000.000 0.000 -1.340
95 285.00 1500.01 207 235 0.740 10000.000 0.000 0.610 15000.000 0.000 -1.340
96 288.00 1500.01 175 232 0.740 10000.000 0.000 0.610 15000.000 0.000 -1.340
97 291.00 1500.01 170 263 0.740 10000.000 0.000 0.610 15000.000 0.000 -1.340
98 294.00 1500.01 158 297 0.740 10000.000 0.000 0.610 15000.000 0.000 -1.340
99 297.00 1500.01 172 282 0.740 10000.000 0.000 0.610 15000.000 0.000 -1.340
100 300.00 1500.01 170 403 0.740 10000.000 0.000 0.610 15000.000 0.000 -1.340
101 303.00 1500.01 152 411 0.740 10000.000 0.000 0.610 15000.000 0.000 -1.340
102 306.00 1500.01 168 447 0.740 10000.000 0.000 0.610 15000.000 0.000 -1.340
103 309.00 1500.01 173 491 0.740 10000.000 0.000 0.610 15000.000 0.000 -1.340
104 312.00 1500.01 165 560 0.740 10000.000 0.000 0.610 15000.000 0.000 -1.340
105 315.00 1500.01 164 540 0.740 10000.000 0.000 0.610 15000.000 0.000 -1.340
106 318.00 1500.01 158 618 0.740 10000.000 0.000 0.610 15000.000 0.000 -1.340
107 321.00 1500.01 178 547 0.740 10000.000 0.000 0.610 15000.000 0.000 -1.340
108 324.00 1500.01 187 630 0.740 10000.000 0.000 0.610 15000.000 0.000 -1.340
109 327.00 1500.01 185 590 0.740 10000.000 0.000 0.610 15000.000 0.000 -1.340
110 330.00 1500.01 180 582 0.740 10000.000 0.000 0.610 15000.000 0.000 -1.340
111 333.00 1500.01 187 511 0.740 10000.000 0.000 0.610 15000.000 0.000 -1.340
112 336.00 1500.01 162 503 0.740 10000.000 0.000 0.610 15000.000 0.000 -1.340
113 339.00 1500.01 165 470 0.740 10000.000 0.000 0.610 15000.000 0.000 -1.340
114 342.00 1500.01 134 463 0.740 10000.000 0.000 0.610 15000.000 0.000 -1.340
115 345.00 1500.01 114 461 0.740 10000.000 0.000 0.610 15000.000 0.000 -1.340
116 348.00 1500.01 109 459 0.740 10000.000 0.000 0.610 15000.000 0.000 -1.340
117 351.00 1500.01 120 480 0.740 10000.000 0.000 0.610 15000.000 0.000 -1.340
118 354.00 1500.01 93 487 0.740 10000.000 0.000 0.610 15000.000 0.000 -1.340
119 357.00 1500.01 110 493 0.740 10000.000 0.000 0.610 15000.000 0.000 -1.340
120 360.00 1500.01 116 536 0.740 10000.000 0.000 0.610 15000.000 0.000 -1.340
121 363.00 1500.01 121 560 0.740 10000.000 0.000 0.610 15000.000 0.000 -1.340
122 366.00 1500.01 122 623 0.740 10000.000 0.000 0.610 15000.000 0.000 -1.340
123 369.00 1500.01 148 628 0.740 10000.000 0.000 0.610 15000.000 0.000 -1.340
124 372.00 1500.01 131 637 0.740 10000.000 0.000 0.610 15000.000 0.000 -1.340
125 375.00 1500.01 117 615 0.740 10000.000 0.000 0.610 15000.000 0.000 -1.340
126 378.00 1500.01 143 640 0.740 10000.000 0.000 0.610 15000.000 0.000 -1.340
127 381.00 1500.01 146 554 0.740 10000.000 0.000 0.610 15000.000 0.000 -1.340
128 384.00 1500.01 145 578 0.740 10000.000 0.000 0.610 15000.000 0.000 -1.340
129 387.00 1500.01 159 537 0.740 10000.000 0.000 0.610 15000.000 0.000 -1.340
130 390.00 1500.01 168 482 0.740 10000.000 0.000 0.610 15000.000 0.000 -1.340
131 393.00 1500.01 168 409 0.740 10000.000 0.000 0.610 15000.000 0.000 -1.340
132 396.00 1500.01 164 343 0.740 10000.000 0.000 0.610 15000.000 0.000 -1.340
133 399.00 1500.01 177 294 0.740 10000.000 0.000 0.610 15000.000 0.000 -1.340
134 402.00 1500.01 172 255 0.740 10000.000 0.000 0.610 15000.000 0.000 -1.340
135 405.00 1500.01 134 255 0.740 10000.000 0.000 0.610 15000.000 0.000 -1.340
136 408.00 1500.01 156 252 0.740 10000.000 0.000 0.610 15000.000 0.000 -1.340
137 411.00 1500.01 147 219 0.740 10000.000 0.000 0.610 15000.000 0.000 -1.340
138 414.00 1500.01 153 264 0.740 10000.000 0.000 0.610 15000.000 0.000 -1.340
139 417.00 1500.01 146 246 0.740 10000.000 0.000 0.610 15000.000 0.000 -1.340
140 420.00 1500.01 138 321 0.740 10000.000 0.000 0.610 15000.000 0.000 -1.340
141 423.00 1500.01 147 363 0.740 10000.000 0.000 0.610 15000.000 0.000 -1.340
142 426.00 1500.01 141 421 0.740 10000.000 0.000 0.610 15000.000 0.000 -1.340
143 429.00 1500.01 167 511 0.740 10000.000 0.000 0.610 15000.000 0.000 -1.340
144 432.00 1500.01 168 564 0.740 10000.000 0.000 0.610 15000.000 0.000 -1.340
