# BinNR microsec tot-time (s)  O-Beam AUX Ampl_1(V) f_1(Hz) phase_1(deg) Ampl_2(V) f_2(Hz) phase_2(deg) chi(pos)
0 0.00 1500.01 170 536 0.740 10000.000 0.000 0.610 15000.000 0.000 1.000
1 3.00 1500.01 349 1175 0.740 10000.000 0.000 0.610 15000.000 0.000 1.000
2 6.00 1500.01 342 1220 0.740 10000.000 0.000 0.610 15000.000 0.000 1.000
3 9.00 1500.01 327 1169 0.740 10000.000 0.000 0.610 15000.000 0.000 1.000
4 12.00 1500.01 320 1135 0.740 10000.000 0.000 0.610 15000.000 0.000 1.000
5 15.00 1500.01 274 1163 0.740 10000.000 0.000 0.610 15000.000 0.000 1.000
6 18.00 1500.01 342 1149 0.740 10000.000 0.000 0.610 15000.000 0.000 1.000
7 21.00 1500.01 336 988 0.740 10000.000 0.000 0.610 15000.000 0.000 1.000
8 24.00 1500.01 293 1062 0.740 10000.000 0.000 0.610 15000.000 0.000 1.000
9 27.00 1500.01 281 1030 0.740 10000.000 0.000 0.610 15000.000 0.000 1.000
10 30.00 1500.01 304 964 0.740 10000.000 0.000 0.610 15000.000 0.000 1.000
11 33.00 1500.01 250 970 0.740 10000.000 0.000 0.610 15000.000 0.000 1.000
12 36.00 1500.01 247 990 0.740 10000.000 0.000 0.610 15000.000 0.000 1.000
13 39.00 1500.01 249 1006 0.740 10000.000 0.000 0.610 15000.000 0.000 1.000
14 42.00 1500.01 203 1003 0.740 10000.000 0.000 0.610 15000.000 0.000 1.000
15 45.00 1500.01 232 1074 0.740 10000.000 0.000 0.610 15000.000 0.000 1.000
16 48.00 1500.01 225 1113 0.740 10000.000 0.000 0.610 15000.000 0.000 1.000
17 51.00 1500.01 246 1088 0.740 10000.000 0.000 0.610 15000.000 0.000 1.000
18 54.00 1500.01 239 1228 0.740 10000.000 0.000 0.610 15000.000 0.000 1.000
19 57.00 1500.01 253 1156 0.740 10000.000 0.000 0.610 15000.000 0.000 1.000
20 60.00 1500.01 300 1121 0.740 10000.000 0.000 0.610 15000.000 0.000 1.000
21 63.00 1500.01 313 1108 0.740 10000.000 0.000 0.610 15000.000 0.000 1.000
22 66.00 1500.01 303 1021 0.740 10000.000 0.000 0.610 15000.000 0.000 1.000
23 69.00 1500.01 319 1052 0.740 10000.000 0.000 0.610 15000.000 0.000 1.000
24 72.00 1500.01 321 977 0.740 10000.000 0.000 0.610 15000.000 0.000 1.000
25 75.00 1500.01 392 882 0.740 10000.000 0.000 0.610 15000.000 0.000 1.000
26 78.00 1500.01 379 773 0.740 10000.000 0.000 0.610 15000.000 0.000 1.000
27 81.00 1500.01 385 798 0.740 10000.000 0.000 0.610 15000.000 0.000 1.000
28 84.00 1500.01 399 729 0.740 10000.000 0.000 0.610 15000.000 0.000 1.000
29 87.00 1500.01 367 729 0.740 10000.000 0.000 0.610 15000.000 0.000 1.000
30 90.00 1500.01 378 716 0.740 10000.000 0.000 0.610 15000.000 0.000 1.000
31 93.00 1500.01 325 759 0.740 10000.000 0.000 0.610 15000.000 0.000 1.000
32 96.00 1500.01 345 844 0.740 10000.000 0.000 0.610 15000.000 0.000 1.000
33 99.00 1500.01 355 837 0.740 10000.000 0.000 0.610 15000.000 0.000 1.000
34 102.00 1500.01 328 859 0.740 10000.000 0.000 0.610 15000.000 0.000 1.000
35 105.00 1500.01 302 990 0.740 10000.000 0.000 0.610 15000.000 0.000 1.000
36 108.00 1500.01 307 1090 0.740 10000.000 0.000 0.610 15000.000 0.000 1.000
37 111.00 1500.01 290 1058 0.740 10000.000 0.000 0.610 15000.000 0.000 1.000
38 114.00 1500.01 282 1073 0.740 10000.000 0.000 0.610 15000.000 0.000 1.000
39 117.00 1500.01 221 1102 0.740 10000.000 0.000 0.610 15000.000 0.000 1.000
40 120.00 1500.01 252 1091 0.740 10000.000 0.000 0.610 15000.000 0.000 1.000
41 123.00 1500.01 217 1070 0.740 10000.000 0.000 0.610 15000.000 0.000 1.000
42 126.00 1500.01 215 1126 0.740 10000.000 0.000 0.610 15000.000 0.000 1.000
43 129.00 1500.01 263 1069 0.740 10000.000 0.000 0.610 15000.000 0.000 1.000
44 132.00 1500.01 237 1077 0.740 10000.000 0.000 0.610 15000.000 0.000 1.000
45 135.00 1500.01 238 1060 0.740 10000.000 0.000 0.610 15000.000 0.000 1.000
46 138.00 1500.01 263 1031 0.740 10000.000 0.000 0.610 15000.000 0.000 1.000
47 141.00 1500.01 273 1030 0.740 10000.000 0.000 0.610 15000.000 0.000 1.000
48 144.00 1500.01 341 986 0.740 10000.000 0.000 0.610 15000.000 0.000 1.000
49 147.00 1500.01 304 1010 0.740 10000.000 0.000 0.610 15000.000 0.000 1.000
50 150.00 1500.01 325 1021 0.740 10000.000 0.000 0.610 15000.000 0.000 1.000
51 153.00 1500.01 340 1003 0.740 10000.000 0.000 0.610 15000.000 0.000 1.000
52 156.00 1500.01 349 1037 0.740 10000.000 0.000 0.610 15000.000 0.000 1.000
53 159.00 1500.01 327 1034 0.740 10000.000 0.000 0.610 15000.000 0.000 1.000
54 162.00 1500.01 356 1057 0.740 10000.000 0.000 0.610 15000.000 0.000 1.000
55 165.00 1500.01 317 1114 0.740 10000.000 0.000 0.610 15000.000 0.000 1.000
56 168.00 1500.01 352 1093 0.740 10000.000 0.000 0.610 15000.000 0.000 1.000
57 171.00 1500.01 317 1076 0.740 10000.000 0.000 0.610 15000.000 0.000 1.000
58 174.00 1500.01 353 1128 0.740 10000.000 0.000 0.610 15000.000 0.000 1.000
59 177.00 1500.01 311 1089 0.740 10000.000 0.000 0.610 15000.000 0.000 1.000
60 180.00 1500.01 352 1120 0.740 10000.000 0.000 0.610 15000.000 0.000 1.000
61 183.00 1500.01 322 1027 0.740 10000.000 0.000 0.610 15000.000 0.000 1.000
62 186.00 1500.01 303 1052 0.740 10000.000 0.000 0.610 15000.000 0.000 1.000
63 189.00 1500.01 295 935 0.740 10000.000 0.000 0.610 15000.000 0.000 1.000
64 192.00 1500.01 346 902 0.740 10000.000 0.000 0.610 15000.000 0.000 1.000
65 195.00 1500.01 319 855 0.740 10000.000 0.000 0.610 15000.000 0.000 1.000
66 198.00 1500.01 331 816 0.740 10000.000 0.000 0.610 15000.000 0.000 1.000
67 201.00 1500.01 314 758 0.740 10000.000 0.000 0.610 15000.000 0.000 1.000
68 204.00 1500.01 365 727 0.740 10000.000 0.000 0.610 15000.000 0.000 1.000
69 207.00 1500.01 340 736 0.740 10000.000 0.000 0.610 15000.000 0.000 1.000
70 210.00 1500.01 315 689 0.740 10000.000 0.000 0.610 15000.000 0.000 1.000
71 213.00 1500.01 318 731 0.740 10000.000 0.000 0.610 15000.000 0.000 1.000
72 216.00 1500.01 336 725 0.740 10000.000 0.000 0.610 15000.000 0.000 1.000
73 219.00 1500.01 322 766 0.740 10000.000 0.000 0.610 15000.000 0.000 1.000
74 222.00 1500.01 316 905 0.740 10000.000 0.000 0.610 15000.000 0.000 1.000
75 225.00 1500.01 289 923 0.740 10000.000 0.000 0.610 15000.000 0.000 1.000
76 228.00 1500.01 258 1062 0.740 10000.000 0.000 0.610 15000.000 0.000 1.000
77 231.00 1500.01 237 1071 0.740 10000.000 0.000 0.610 15000.000 0.000 1.000
78 234.00 1500.01 272 1185 0.740 10000.000 0.000 0.610 15000.000 0.000 1.000
79 237.00 1500.01 232 1168 0.740 10000.000 0.000 0.610 15000.000 0.000 1.000
80 240.00 1500.01 216 1277 0.740 10000.000 0.000 0.610 15000.000 0.000 1.000
81 243.00 1500.01 242 1237 0.740 10000.000 0.000 0.610 15000.000 0.000 1.000
82 246.00 1500.01 240 1308 0.740 10000.000 0.000 0.610 15000.000 0.000 1.000
83 249.00 1500.01 228 1169 0.740 10000.000 0.000 0.610 15000.000 0.000 1.000
84 252.00 1500.01 250 1196 0.740 10000.000 0.000 0.610 15000.000 0.000 1.000
85 255.00 1500.01 243 1221 0.740 10000.000 0.000 0.610 15000.000 0.000 1.000
86 258.00 1500.01 285 1194 0.740 10000.000 0.000 0.610 15000.000 0.000 1.000
87 261.00 1500.01 273 1155 0.740 10000.000 0.000 0.610 15000.000 0.000 1.000
88 264.00 1500.01 316 1098 0.740 10000.000 0.000 0.610 15000.000 0.000 1.000
89 267.00 1500.01 317 1013 0.740 10000.000 0.000 0.610 15000.000 0.000 1.000
90 270.00 1500.01 335 930 0.740 10000.000 0.000 0.610 15000.000 0.000 1.000
91 273.00 1500.01 348 883 0.740 10000.000 0.000 0.610 15000.000 0.000 1.000
92 276.00 1500.01 362 864 0.740 10000.000 0.000 0.610 15000.000 0.000 1.000
93 279.00 1500.01 391 708 0.740 10000.000 0.000 0.610 15000.000 0.000 1.000
94 282.00 1500.01 391 729 0.740 10000.000 0.000 0.610 15000.000 0.000 1.000
95 285.00 1500.01 317 664 0.740 10000.000 0.000 0.610 15000.000 0.000 1.000
96 288.00 1500.01 343 729 0.740 10000.000 0.000 0.610 15000.000 0.000 1.000
97 291.00 1500.01 333 714 0.740 10000.000 0.000 0.610 15000.000 0.000 1.000
98 294.00 1500.01 320 765 0.740 10000.000 0.000 0.610 15000.000 0.000 1.000
99 297.00 1500.01 316 814 0.740 10000.000 0.000 0.610 15000.000 0.000 1.000
100 300.00 1500.01 312 824 0.740 10000.000 0.000 0.610 15000.000 0.000 1.000
101 303.00 1500.01 318 871 0.740 10000.000 0.000 0.610 15000.000 0.000 1.000
102 306.00 1500.01 310 956 0.740 10000.000 0.000 0.610 15000.000 0.000 1.000
103 309.00 1500.01 282 936 0.740 10000.000 0.000 0.610 15000.000 0.000 1.000
104 312.00 1500.01 301 1041 0.740 10000.000 0.000 0.610 15000.000 0.000 1.000
105 315.00 1500.01 342 1055 0.740 10000.000 0.000 0.610 15000.000 0.000 1.000
106 318.00 1500.01 303 1178 0.740 10000.000 0.000 0.610 15000.000 0.000 1.000
107 321.00 1500.01 343 1079 0.740 10000.000 0.000 0.610 15000.000 0.000 1.000
108 324.00 1500.01 383 1130 0.740 10000.000 0.000 0.610 15000.000 0.000 1.000
109 327.00 1500.01 324 1056 0.740 10000.000 0.000 0.610 15000.000 0.000 1.000
110 330.00 1500.01 346 1023 0.740 10000.000 0.000 0.610 15000.000 0.000 1.000
111 333.00 1500.01 328 993 0.740 10000.000 0.000 0.610 15000.000 0.000 1.000
112 336.00 1500.01 357 1057 0.740 10000.000 0.000 0.610 15000.000 0.000 1.000
113 339.00 1500.01 308 969 0.740 10000.000 0.000 0.610 15000.000 0.000 1.000
114 342.00 1500.01 262 1010 0.740 10000.000 0.000 0.610 15000.000 0.000 1.000
115 345.00 1500.01 258 1069 0.740 10000.000 0.000 0.610 15000.000 0.000 1.000
116 348.00 1500.01 272 1009 0.740 10000.000 0.000 0.610 15000.000 0.000 1.000
117 351.00 1500.01 224 932 0.740 10000.000 0.000 0.610 15000.000 0.000 1.000
118 354.00 1500.01 247 1007 0.740 10000.000 0.000 0.610 15000.000 0.000 1.000
119 357.00 1500.01 253 1019 0.740 10000.000 0.000 0.610 15000.000 0.000 1.000
120 360.00 1500.01 252 998 0.740 10000.000 0.000 0.610 15000.000 0.000 1.000
121 363.00 1500.01 231 1055 0.740 10000.000 0.000 0.610 15000.000 0.000 1.000
122 366.00 1500.01 254 1150 0.740 10000.000 0.000 0.610 15000.000 0.000 1.000
123 369.00 1500.01 251 1142 0.740 10000.000 0.000 0.610 15000.000 0.000 1.000
124 372.00 1500.01 263 1057 0.740 10000.000 0.000 0.610 15000.000 0.000 1.000
125 375.00 1500.01 277 1099 0.740 10000.000 0.000 0.610 15000.000 0.000 1.000
126 378.00 1500.01 309 1062 0.740 10000.000 0.000 0.610 15000.000 0.000 1.000
127 381.00 1500.01 339 1060 0.740 10000.000 0.000 0.610 15000.000 0.000 1.000
128 384.00 1500.01 329 1079 0.740 10000.000 0.000 0.610 15000.000 0.000 1.000
129 387.00 1500.01 310 980 0.740 10000.000 0.000 0.610 15000.000 0.000 1.000
130 390.00 1500.01 325 955 0.740 10000.000 0.000 0.610 15000.000 0.000 1.000
131 393.00 1500.01 327 939 0.740 10000.000 0.000 0.610 15000.000 0.000 1.000
132 396.00 1500.01 317 838 0.740 10000.000 0.000 0.610 15000.000 0.000 1.000
133 399.00 1500.01 345 767 0.740 10000.000 0.000 0.610 15000.000 0.000 1.000
134 402.00 1500.01 350 788 0.740 10000.000 0.000 0.610 15000.000 0.000 1.000
135 405.00 1500.01 350 721 0.740 10000.000 0.000 0.610 15000.000 0.000 1.000
136 408.00 1500.01 319 702 0.740 10000.000 0.000 0.610 15000.000 0.000 1.000
137 411.00 1500.01 322 757 0.740 10000.000 0.000 0.610 15000.000 0.000 1.000
138 414.00 1500.01 332 722 0.740 10000.000 0.000 0.610 15000.000 0.000 1.000
139 417.00 1500.01 333 755 0.740 10000.000 0.000 0.610 15000.000 0.000 1.000
140 420.00 1500.01 288 835 0.740 10000.000 0.000 0.610 15000.000 0.000 1.000
141 423.00 1500.01 309 830 0.740 10000.000 0.000 0.610 15000.000 0.000 1.000
142 426.00 1500.01 314 958 0.740 10000.000 0.000 0.610 15000.000 0.000 1.000
143 429.00 1500.01 350 1053 0.740 10000.000 0.000 0.610 15000.000 0.000 1.000
144 432.00 1500.01 333 1073 0.740 10000.000 0.000 0.610 15000.000 0.000 1.000
