# BinNR microsec tot-time (s)  O-Beam AUX Ampl_1(V) f_1(Hz) phase_1(deg) Ampl_2(V) f_2(Hz) phase_2(deg) chi(pos)
0 0.00 1500.02 66 181 0.740 10000.000 0.000 0.610 15000.000 0.000 -1.516
1 3.00 1500.02 102 341 0.740 10000.000 0.000 0.610 15000.000 0.000 -1.516
2 6.00 1500.02 96 440 0.740 10000.000 0.000 0.610 15000.000 0.000 -1.516
3 9.00 1500.02 120 374 0.740 10000.000 0.000 0.610 15000.000 0.000 -1.516
4 12.00 1500.02 121 417 0.740 10000.000 0.000 0.610 15000.000 0.000 -1.516
5 15.00 1500.02 105 357 0.740 10000.000 0.000 0.610 15000.000 0.000 -1.516
6 18.00 1500.02 112 300 0.740 10000.000 0.000 0.610 15000.000 0.000 -1.516
7 21.00 1500.02 112 262 0.740 10000.000 0.000 0.610 15000.000 0.000 -1.516
8 24.00 1500.02 96 275 0.740 10000.000 0.000 0.610 15000.000 0.000 -1.516
9 27.00 1500.02 90 237 0.740 10000.000 0.000 0.610 15000.000 0.000 -1.516
10 30.00 1500.02 99 209 0.740 10000.000 0.000 0.610 15000.000 0.000 -1.516
11 33.00 1500.02 95 228 0.740 10000.000 0.000 0.610 15000.000 0.000 -1.516
12 36.00 1500.02 104 252 0.740 10000.000 0.000 0.610 15000.000 0.000 -1.516
13 39.00 1500.02 90 214 0.740 10000.000 0.000 0.610 15000.000 0.000 -1.516
14 42.00 1500.02 107 263 0.740 10000.000 0.000 0.610 15000.000 0.000 -1.516
15 45.00 1500.02 104 293 0.740 10000.000 0.000 0.610 15000.000 0.000 -1.516
16 48.00 1500.02 116 309 0.740 10000.000 0.000 0.610 15000.000 0.000 -1.516
17 51.00 1500.02 112 355 0.740 10000.000 0.000 0.610 15000.000 0.000 -1.516
18 54.00 1500.02 104 346 0.740 10000.000 0.000 0.610 15000.000 0.000 -1.516
19 57.00 1500.02 90 343 0.740 10000.000 0.000 0.610 15000.000 0.000 -1.516
20 60.00 1500.02 110 363 0.740 10000.000 0.000 0.610 15000.000 0.000 -1.516
21 63.00 1500.02 95 285 0.740 10000.000 0.000 0.610 15000.000 0.000 -1.516
22 66.00 1500.02 123 267 0.740 10000.000 0.000 0.610 15000.000 0.000 -1.516
23 69.00 1500.02 107 215 0.740 10000.000 0.000 0.610 15000.000 0.000 -1.516
24 72.00 1500.02 130 194 0.740 10000.000 0.000 0.610 15000.000 0.000 -1.516
25 75.00 1500.02 128 180 0.740 10000.000 0.000 0.610 15000.000 0.000 -1.516
26 78.00 1500.02 136 155 0.740 10000.000 0.000 0.610 15000.000 0.000 -1.516
27 81.00 1500.02 140 146 0.740 10000.000 0.000 0.610 15000.000 0.000 -1.516
28 84.00 1500.02 133 146 0.740 10000.000 0.000 0.610 15000.000 0.000 -1.516
29 87.00 1500.02 138 155 0.740 10000.000 0.000 0.610 15000.000 0.000 -1.516
30 90.00 1500.02 118 142 0.740 10000.000 0.000 0.610 15000.000 0.000 -1.516
31 93.00 1500.02 112 156 0.740 10000.000 0.000 0.610 15000.000 0.000 -1.516
32 96.00 1500.02 124 162 0.740 10000.000 0.000 0.610 15000.000 0.000 -1.516
33 99.00 1500.02 132 168 0.740 10000.000 0.000 0.610 15000.000 0.000 -1.516
34 102.00 1500.02 106 214 0.740 10000.000 0.000 0.610 15000.000 0.000 -1.516
35 105.00 1500.02 122 205 0.740 10000.000 0.000 0.610 15000.000 0.000 -1.516
36 108.00 1500.02 100 282 0.740 10000.000 0.000 0.610 15000.000 0.000 -1.516
37 111.00 1500.02 99 244 0.740 10000.000 0.000 0.610 15000.000 0.000 -1.516
38 114.00 1500.02 88 275 0.740 10000.000 0.000 0.610 15000.000 0.000 -1.516
39 117.00 1500.02 89 294 0.740 10000.000 0.000 0.610 15000.000 0.000 -1.516
40 120.00 1500.02 90 303 0.740 10000.000 0.000 0.610 15000.000 0.000 -1.516
41 123.00 1500.02 68 276 0.740 10000.000 0.000 0.610 15000.000 0.000 -1.516
42 126.00 1500.02 98 294 0.740 10000.000 0.000 0.610 15000.000 0.000 -1.516
43 129.00 1500.02 114 259 0.740 10000.000 0.000 0.610 15000.000 0.000 -1.516
44 132.00 1500.02 94 236 0.740 10000.000 0.000 0.610 15000.000 0.000 -1.516
45 135.00 1500.02 94 223 0.740 10000.000 0.000 0.610 15000.000 0.000 -1.516
46 138.00 1500.02 104 236 0.740 10000.000 0.000 0.610 15000.000 0.000 -1.516
47 141.00 1500.02 102 192 0.740 10000.000 0.000 0.610 15000.000 0.000 -1.516
48 144.00 1500.02 98 249 0.740 10000.000 0.000 0.610 15000.000 0.000 -1.516
49 147.00 1500.02 94 186 0.740 10000.000 0.000 0.610 15000.000 0.000 -1.516
50 150.00 1500.02 99 216 0.740 10000.000 0.000 0.610 15000.000 0.000 -1.516
51 153.00 1500.02 111 218 0.740 10000.000 0.000 0.610 15000.000 0.000 -1.516
52 156.00 1500.02 123 255 0.740 10000.000 0.000 0.610 15000.000 0.000 -1.516
53 159.00 1500.02 89 249 0.740 10000.000 0.000 0.610 15000.000 0.000 -1.516
54 162.00 1500.02 122 261 0.740 10000.000 0.000 0.610 15000.000 0.000 -1.516
55 165.00 1500.02 101 309 0.740 10000.000 0.000 0.610 15000.000 0.000 -1.516
56 168.00 1500.02 90 335 0.740 10000.000 0.000 0.610 15000.000 0.000 -1.516
57 171.00 1500.02 82 352 0.740 10000.000 0.000 0.610 15000.000 0.000 -1.516
58 174.00 1500.02 104 373 0.740 10000.000 0.000 0.610 15000.000 0.000 -1.516
59 177.00 1500.02 103 314 0.740 10000.000 0.000 0.610 15000.000 0.000 -1.516
60 180.00 1500.02 103 327 0.740 10000.000 0.000 0.610 15000.000 0.000 -1.516
61 183.00 1500.02 119 307 0.740 10000.000 0.000 0.610 15000.000 0.000 -1.516
62 186.00 1500.02 113 269 0.740 10000.000 0.000 0.610 15000.000 0.000 -1.516
63 189.00 1500.02 113 254 0.740 10000.000 0.000 0.610 15000.000 0.000 -1.516
64 192.00 1500.02 114 196 0.740 10000.000 0.000 0.610 15000.000 0.000 -1.516
65 195.00 1500.02 121 191 0.740 10000.000 0.000 0.610 15000.000 0.000 -1.516
66 198.00 1500.02 121 148 0.740 10000.000 0.000 0.610 15000.000 0.000 -1.516
67 201.00 1500.02 113 150 0.740 10000.000 0.000 0.610 15000.000 0.000 -1.516
68 204.00 1500.02 100 129 0.740 10000.000 0.000 0.610 15000.000 0.000 -1.516
69 207.00 1500.02 111 133 0.740 10000.000 0.000 0.610 15000.000 0.000 -1.516
70 210.00 1500.02 115 134 0.740 10000.000 0.000 0.610 15000.000 0.000 -1.516
71 213.00 1500.02 89 144 0.740 10000.000 0.000 0.610 15000.000 0.000 -1.516
72 216.00 1500.02 122 133 0.740 10000.000 0.000 0.610 15000.000 0.000 -1.516
73 219.00 1500.02 130 146 0.740 10000.000 0.000 0.610 15000.000 0.000 -1.516
74 222.00 1500.02 112 153 0.740 10000.000 0.000 0.610 15000.000 0.000 -1.516
75 225.00 1500.02 90 173 0.740 10000.000 0.000 0.610 15000.000 0.000 -1.516
76 228.00 1500.02 92 205 0.740 10000.000 0.000 0.610 15000.000 0.000 -1.516
77 231.00 1500.02 92 285 0.740 10000.000 0.000 0.610 15000.000 0.000 -1.516
78 234.00 1500.02 97 357 0.740 10000.000 0.000 0.610 15000.000 0.000 -1.516
79 237.00 1500.02 121 371 0.740 10000.000 0.000 0.610 15000.000 0.000 -1.516
80 240.00 1500.02 96 437 0.740 10000.000 0.000 0.610 15000.000 0.000 -1.516
81 243.00 1500.02 92 480 0.740 10000.000 0.000 0.610 15000.000 0.000 -1.516
82 246.00 1500.02 105 507 0.740 10000.000 0.000 0.610 15000.000 0.000 -1.516
83 249.00 1500.02 103 465 0.740 10000.000 0.000 0.610 15000.000 0.000 -1.516
84 252.00 1500.02 95 492 0.740 10000.000 0.000 0.610 15000.000 0.000 -1.516
85 255.00 1500.02 117 451 0.740 10000.000 0.000 0.610 15000.000 0.000 -1.516
86 258.00 1500.02 89 399 0.740 10000.000 0.000 0.610 15000.000 0.000 -1.516
87 261.00 1500.02 113 332 0.740 10000.000 0.000 0.610 15000.000 0.000 -1.516
88 264.00 1500.02 118 296 0.740 10000.000 0.000 0.610 15000.000 0.000 -1.516
89 267.00 1500.02 103 251 0.740 10000.000 0.000 0.610 15000.000 0.000 -1.516
90 270.00 1500.02 126 201 0.740 10000.000 0.000 0.610 15000.000 0.000 -1.516
91 273.00 1500.02 104 158 0.740 10000.000 0.000 0.610 15000.000 0.000 -1.516
92 276.00 1500.02 121 141 0.740 10000.000 0.000 0.610 15000.000 0.000 -1.516
93 279.00 1500.02 135 131 0.740 10000.000 0.000 0.610 15000.000 0.000 -1.516
94 282.00 1500.02 116 144 0.740 10000.000 0.000 0.610 15000.000 0.000 -1.516
95 285.00 1500.02 111 114 0.740 10000.000 0.000 0.610 15000.000 0.000 -1.516
96 288.00 1500.02 112 137 0.740 10000.000 0.000 0.610 15000.000 0.000 -1.516
97 291.00 1500.02 108 128 0.740 10000.000 0.000 0.610 15000.000 0.000 -1.516
98 294.00 1500.02 102 139 0.740 10000.000 0.000 0.610 15000.000 0.000 -1.516
99 297.00 1500.02 119 159 0.740 10000.000 0.000 0.610 15000.000 0.000 -1.516
100 300.00 1500.02 118 169 0.740 10000.000 0.000 0.610 15000.000 0.000 -1.516
101 303.00 1500.02 83 202 0.740 10000.000 0.000 0.610 15000.000 0.000 -1.516
102 306.00 1500.02 125 228 0.740 10000.000 0.000 0.610 15000.000 0.000 -1.516
103 309.00 1500.02 95 210 0.740 10000.000 0.000 0.610 15000.000 0.000 -1.516
104 312.00 1500.02 106 269 0.740 10000.000 0.000 0.610 15000.000 0.000 -1.516
105 315.00 1500.02 102 245 0.740 10000.000 0.000 0.610 15000.000 0.000 -1.516
106 318.00 1500.02 129 297 0.740 10000.000 0.000 0.610 15000.000 0.000 -1.516
107 321.00 1500.02 106 312 0.740 10000.000 0.000 0.610 15000.000 0.000 -1.516
108 324.00 1500.02 131 298 0.740 10000.000 0.000 0.610 15000.000 0.000 -1.516
109 327.00 1500.02 132 281 0.740 10000.000 0.000 0.610 15000.000 0.000 -1.516
110 330.00 1500.02 112 247 0.740 10000.000 0.000 0.610 15000.000 0.000 -1.516
111 333.00 1500.02 95 215 0.740 10000.000 0.000 0.610 15000.000 0.000 -1.516
112 336.00 1500.02 106 214 0.740 10000.000 0.000 0.610 15000.000 0.000 -1.516
113 339.00 1500.02 99 196 0.740 10000.000 0.000 0.610 15000.000 0.000 -1.516
114 342.00 1500.02 92 211 0.740 10000.000 0.000 0.610 15000.000 0.000 -1.516
115 345.00 1500.02 97 207 0.740 10000.000 0.000 0.610 15000.000 0.000 -1.516
116 348.00 1500.02 113 207 0.740 10000.000 0.000 0.610 15000.000 0.000 -1.516
117 351.00 1500.02 83 202 0.740 10000.000 0.000 0.610 15000.000 0.000 -1.516
118 354.00 1500.02 101 238 0.740 10000.000 0.000 0.610 15000.000 0.000 -1.516
119 357.00 1500.02 83 202 0.740 10000.000 0.000 0.610 15000.000 0.000 -1.516
120 360.00 1500.02 106 275 0.740 10000.000 0.000 0.610 15000.000 0.000 -1.516
121 363.00 1500.02 90 284 0.740 10000.000 0.000 0.610 15000.000 0.000 -1.516
122 366.00 1500.02 99 350 0.740 10000.000 0.000 0.610 15000.000 0.000 -1.516
123 369.00 1500.02 98 343 0.740 10000.000 0.000 0.610 15000.000 0.000 -1.516
124 372.00 1500.02 88 328 0.740 10000.000 0.000 0.610 15000.000 0.000 -1.516
125 375.00 1500.02 98 377 0.740 10000.000 0.000 0.610 15000.000 0.000 -1.516
126 378.00 1500.02 108 307 0.740 10000.000 0.000 0.610 15000.000 0.000 -1.516
127 381.00 1500.02 119 340 0.740 10000.000 0.000 0.610 15000.000 0.000 -1.516
128 384.00 1500.02 110 297 0.740 10000.000 0.000 0.610 15000.000 0.000 -1.516
129 387.00 1500.02 97 279 0.740 10000.000 0.000 0.610 15000.000 0.000 -1.516
130 390.00 1500.02 110 215 0.740 10000.000 0.000 0.610 15000.000 0.000 -1.516
131 393.00 1500.02 105 202 0.740 10000.000 0.000 0.610 15000.000 0.000 -1.516
132 396.00 1500.02 115 184 0.740 10000.000 0.000 0.610 15000.000 0.000 -1.516
133 399.00 1500.02 116 150 0.740 10000.000 0.000 0.610 15000.000 0.000 -1.516
134 402.00 1500.02 98 152 0.740 10000.000 0.000 0.610 15000.000 0.000 -1.516
135 405.00 1500.02 108 137 0.740 10000.000 0.000 0.610 15000.000 0.000 -1.516
136 408.00 1500.02 87 114 0.740 10000.000 0.000 0.610 15000.000 0.000 -1.516
137 411.00 1500.02 112 109 0.740 10000.000 0.000 0.610 15000.000 0.000 -1.516
138 414.00 1500.02 114 134 0.740 10000.000 0.000 0.610 15000.000 0.000 -1.516
139 417.00 1500.02 89 142 0.740 10000.000 0.000 0.610 15000.000 0.000 -1.516
140 420.00 1500.02 95 135 0.740 10000.000 0.000 0.610 15000.000 0.000 -1.516
141 423.00 1500.02 111 147 0.740 10000.000 0.000 0.610 15000.000 0.000 -1.516
142 426.00 1500.02 95 189 0.740 10000.000 0.000 0.610 15000.000 0.000 -1.516
143 429.00 1500.02 103 224 0.740 10000.000 0.000 0.610 15000.000 0.000 -1.516
144 432.00 1500.02 120 293 0.740 10000.000 0.000 0.610 15000.000 0.000 -1.516
