# BinNR microsec tot-time (s)  O-Beam AUX Ampl_1(V) f_1(Hz) phase_1(deg) Ampl_2(V) f_2(Hz) phase_2(deg) chi(pos)
0 0.00 1500.01 103 462 0.740 10000.000 0.000 0.610 15000.000 0.000 -1.165
1 3.00 1500.01 241 945 0.740 10000.000 0.000 0.610 15000.000 0.000 -1.165
2 6.00 1500.01 270 1014 0.740 10000.000 0.000 0.610 15000.000 0.000 -1.165
3 9.00 1500.01 263 965 0.740 10000.000 0.000 0.610 15000.000 0.000 -1.165
4 12.00 1500.01 253 995 0.740 10000.000 0.000 0.610 15000.000 0.000 -1.165
5 15.00 1500.01 256 951 0.740 10000.000 0.000 0.610 15000.000 0.000 -1.165
6 18.00 1500.01 235 892 0.740 10000.000 0.000 0.610 15000.000 0.000 -1.165
7 21.00 1500.01 219 802 0.740 10000.000 0.000 0.610 15000.000 0.000 -1.165
8 24.00 1500.01 223 803 0.740 10000.000 0.000 0.610 15000.000 0.000 -1.165
9 27.00 1500.01 200 722 0.740 10000.000 0.000 0.610 15000.000 0.000 -1.165
10 30.00 1500.01 172 773 0.740 10000.000 0.000 0.610 15000.000 0.000 -1.165
11 33.00 1500.01 193 693 0.740 10000.000 0.000 0.610 15000.000 0.000 -1.165
12 36.00 1500.01 171 749 0.740 10000.000 0.000 0.610 15000.000 0.000 -1.165
13 39.00 1500.01 173 724 0.740 10000.000 0.000 0.610 15000.000 0.000 -1.165
14 42.00 1500.01 154 816 0.740 10000.000 0.000 0.610 15000.000 0.000 -1.165
15 45.00 1500.01 151 865 0.740 10000.000 0.000 0.610 15000.000 0.000 -1.165
16 48.00 1500.01 160 881 0.740 10000.000 0.000 0.610 15000.000 0.000 -1.165
17 51.00 1500.01 138 901 0.740 10000.000 0.000 0.610 15000.000 0.000 -1.165
18 54.00 1500.01 166 950 0.740 10000.000 0.000 0.610 15000.000 0.000 -1.165
19 57.00 1500.01 178 927 0.740 10000.000 0.000 0.610 15000.000 0.000 -1.165
20 60.00 1500.01 206 941 0.740 10000.000 0.000 0.610 15000.000 0.000 -1.165
21 63.00 1500.01 202 824 0.740 10000.000 0.000 0.610 15000.000 0.000 -1.165
22 66.00 1500.01 299 808 0.740 10000.000 0.000 0.610 15000.000 0.000 -1.165
23 69.00 1500.01 230 757 0.740 10000.000 0.000 0.610 15000.000 0.000 -1.165
24 72.00 1500.01 300 661 0.740 10000.000 0.000 0.610 15000.000 0.000 -1.165
25 75.00 1500.01 252 584 0.740 10000.000 0.000 0.610 15000.000 0.000 -1.165
26 78.00 1500.01 311 520 0.740 10000.000 0.000 0.610 15000.000 0.000 -1.165
27 81.00 1500.01 330 472 0.740 10000.000 0.000 0.610 15000.000 0.000 -1.165
28 84.00 1500.01 322 500 0.740 10000.000 0.000 0.610 15000.000 0.000 -1.165
29 87.00 1500.01 303 449 0.740 10000.000 0.000 0.610 15000.000 0.000 -1.165
30 90.00 1500.01 291 432 0.740 10000.000 0.000 0.610 15000.000 0.000 -1.165
31 93.00 1500.01 289 520 0.740 10000.000 0.000 0.610 15000.000 0.000 -1.165
32 96.00 1500.01 288 547 0.740 10000.000 0.000 0.610 15000.000 0.000 -1.165
33 99.00 1500.01 240 564 0.740 10000.000 0.000 0.610 15000.000 0.000 -1.165
34 102.00 1500.01 257 600 0.740 10000.000 0.000 0.610 15000.000 0.000 -1.165
35 105.00 1500.01 254 660 0.740 10000.000 0.000 0.610 15000.000 0.000 -1.165
36 108.00 1500.01 198 764 0.740 10000.000 0.000 0.610 15000.000 0.000 -1.165
37 111.00 1500.01 196 794 0.740 10000.000 0.000 0.610 15000.000 0.000 -1.165
38 114.00 1500.01 179 849 0.740 10000.000 0.000 0.610 15000.000 0.000 -1.165
39 117.00 1500.01 155 838 0.740 10000.000 0.000 0.610 15000.000 0.000 -1.165
40 120.00 1500.01 163 908 0.740 10000.000 0.000 0.610 15000.000 0.000 -1.165
41 123.00 1500.01 152 859 0.740 10000.000 0.000 0.610 15000.000 0.000 -1.165
42 126.00 1500.01 185 897 0.740 10000.000 0.000 0.610 15000.000 0.000 -1.165
43 129.00 1500.01 161 774 0.740 10000.000 0.000 0.610 15000.000 0.000 -1.165
44 132.00 1500.01 174 799 0.740 10000.000 0.000 0.610 15000.000 0.000 -1.165
45 135.00 1500.01 167 816 0.740 10000.000 0.000 0.610 15000.000 0.000 -1.165
46 138.00 1500.01 202 836 0.740 10000.000 0.000 0.610 15000.000 0.000 -1.165
47 141.00 1500.01 199 729 0.740 10000.000 0.000 0.610 15000.000 0.000 -1.165
48 144.00 1500.01 215 750 0.740 10000.000 0.000 0.610 15000.000 0.000 -1.165
49 147.00 1500.01 240 776 0.740 10000.000 0.000 0.610 15000.000 0.000 -1.165
50 150.00 1500.01 257 716 0.740 10000.000 0.000 0.610 15000.000 0.000 -1.165
51 153.00 1500.01 245 795 0.740 10000.000 0.000 0.610 15000.000 0.000 -1.165
52 156.00 1500.01 286 768 0.740 10000.000 0.000 0.610 15000.000 0.000 -1.165
53 159.00 1500.01 226 743 0.740 10000.000 0.000 0.610 15000.000 0.000 -1.165
54 162.00 1500.01 234 905 0.740 10000.000 0.000 0.610 15000.000 0.000 -1.165
55 165.00 1500.01 269 851 0.740 10000.000 0.000 0.610 15000.000 0.000 -1.165
56 168.00 1500.01 230 901 0.740 10000.000 0.000 0.610 15000.000 0.000 -1.165
57 171.00 1500.01 233 891 0.740 10000.000 0.000 0.610 15000.000 0.000 -1.165
58 174.00 1500.01 235 860 0.740 10000.000 0.000 0.610 15000.000 0.000 -1.165
59 177.00 1500.01 215 835 0.740 10000.000 0.000 0.610 15000.000 0.000 -1.165
60 180.00 1500.01 213 842 0.740 10000.000 0.000 0.610 15000.000 0.000 -1.165
61 183.00 1500.01 238 840 0.740 10000.000 0.000 0.610 15000.000 0.000 -1.165
62 186.00 1500.01 247 749 0.740 10000.000 0.000 0.610 15000.000 0.000 -1.165
63 189.00 1500.01 230 701 0.740 10000.000 0.000 0.610 15000.000 0.000 -1.165
64 192.00 1500.01 286 705 0.740 10000.000 0.000 0.610 15000.000 0.000 -1.165
65 195.00 1500.01 237 633 0.740 10000.000 0.000 0.610 15000.000 0.000 -1.165
66 198.00 1500.01 223 537 0.740 10000.000 0.000 0.610 15000.000 0.000 -1.165
67 201.00 1500.01 273 492 0.740 10000.000 0.000 0.610 15000.000 0.000 -1.165
68 204.00 1500.01 242 444 0.740 10000.000 0.000 0.610 15000.000 0.000 -1.165
69 207.00 1500.01 240 473 0.740 10000.000 0.000 0.610 15000.000 0.000 -1.165
70 210.00 1500.01 266 441 0.740 10000.000 0.000 0.610 15000.000 0.000 -1.165
71 213.00 1500.01 226 480 0.740 10000.000 0.000 0.610 15000.000 0.000 -1.165
72 216.00 1500.01 263 485 0.740 10000.000 0.000 0.610 15000.000 0.000 -1.165
73 219.00 1500.01 216 521 0.740 10000.000 0.000 0.610 15000.000 0.000 -1.165
74 222.00 1500.01 212 584 0.740 10000.000 0.000 0.610 15000.000 0.000 -1.165
75 225.00 1500.01 182 683 0.740 10000.000 0.000 0.610 15000.000 0.000 -1.165
76 228.00 1500.01 183 823 0.740 10000.000 0.000 0.610 15000.000 0.000 -1.165
77 231.00 1500.01 193 827 0.740 10000.000 0.000 0.610 15000.000 0.000 -1.165
78 234.00 1500.01 146 955 0.740 10000.000 0.000 0.610 15000.000 0.000 -1.165
79 237.00 1500.01 153 957 0.740 10000.000 0.000 0.610 15000.000 0.000 -1.165
80 240.00 1500.01 188 1019 0.740 10000.000 0.000 0.610 15000.000 0.000 -1.165
81 243.00 1500.01 143 1045 0.740 10000.000 0.000 0.610 15000.000 0.000 -1.165
82 246.00 1500.01 161 1134 0.740 10000.000 0.000 0.610 15000.000 0.000 -1.165
83 249.00 1500.01 133 1137 0.740 10000.000 0.000 0.610 15000.000 0.000 -1.165
84 252.00 1500.01 173 1010 0.740 10000.000 0.000 0.610 15000.000 0.000 -1.165
85 255.00 1500.01 186 1036 0.740 10000.000 0.000 0.610 15000.000 0.000 -1.165
86 258.00 1500.01 200 1010 0.740 10000.000 0.000 0.610 15000.000 0.000 -1.165
87 261.00 1500.01 201 906 0.740 10000.000 0.000 0.610 15000.000 0.000 -1.165
88 264.00 1500.01 227 806 0.740 10000.000 0.000 0.610 15000.000 0.000 -1.165
89 267.00 1500.01 222 791 0.740 10000.000 0.000 0.610 15000.000 0.000 -1.165
90 270.00 1500.01 281 666 0.740 10000.000 0.000 0.610 15000.000 0.000 -1.165
91 273.00 1500.01 271 567 0.740 10000.000 0.000 0.610 15000.000 0.000 -1.165
92 276.00 1500.01 277 556 0.740 10000.000 0.000 0.610 15000.000 0.000 -1.165
93 279.00 1500.01 284 497 0.740 10000.000 0.000 0.610 15000.000 0.000 -1.165
94 282.00 1500.01 288 407 0.740 10000.000 0.000 0.610 15000.000 0.000 -1.165
95 285.00 1500.01 262 395 0.740 10000.000 0.000 0.610 15000.000 0.000 -1.165
96 288.00 1500.01 259 469 0.740 10000.000 0.000 0.610 15000.000 0.000 -1.165
97 291.00 1500.01 256 452 0.740 10000.000 0.000 0.610 15000.000 0.000 -1.165
98 294.00 1500.01 238 532 0.740 10000.000 0.000 0.610 15000.000 0.000 -1.165
99 297.00 1500.01 250 558 0.740 10000.000 0.000 0.610 15000.000 0.000 -1.165
100 300.00 1500.01 256 577 0.740 10000.000 0.000 0.610 15000.000 0.000 -1.165
101 303.00 1500.01 239 623 0.740 10000.000 0.000 0.610 15000.000 0.000 -1.165
102 306.00 1500.01 235 681 0.740 10000.000 0.000 0.610 15000.000 0.000 -1.165
103 309.00 1500.01 244 764 0.740 10000.000 0.000 0.610 15000.000 0.000 -1.165
104 312.00 1500.01 232 825 0.740 10000.000 0.000 0.610 15000.000 0.000 -1.165
105 315.00 1500.01 256 865 0.740 10000.000 0.000 0.610 15000.000 0.000 -1.165
106 318.00 1500.01 251 868 0.740 10000.000 0.000 0.610 15000.000 0.000 -1.165
107 321.00 1500.01 251 873 0.740 10000.000 0.000 0.610 15000.000 0.000 -1.165
108 324.00 1500.01 275 819 0.740 10000.000 0.000 0.610 15000.000 0.000 -1.165
109 327.00 1500.01 270 871 0.740 10000.000 0.000 0.610 15000.000 0.000 -1.165
110 330.00 1500.01 266 863 0.740 10000.000 0.000 0.610 15000.000 0.000 -1.165
111 333.00 1500.01 268 773 0.740 10000.000 0.000 0.610 15000.000 0.000 -1.165
112 336.00 1500.01 233 844 0.740 10000.000 0.000 0.610 15000.000 0.000 -1.165
113 339.00 1500.01 226 774 0.740 10000.000 0.000 0.610 15000.000 0.000 -1.165
114 342.00 1500.01 222 743 0.740 10000.000 0.000 0.610 15000.000 0.000 -1.165
115 345.00 1500.01 185 736 0.740 10000.000 0.000 0.610 15000.000 0.000 -1.165
116 348.00 1500.01 195 736 0.740 10000.000 0.000 0.610 15000.000 0.000 -1.165
117 351.00 1500.01 180 724 0.740 10000.000 0.000 0.610 15000.000 0.000 -1.165
118 354.00 1500.01 166 757 0.740 10000.000 0.000 0.610 15000.000 0.000 -1.165
119 357.00 1500.01 141 773 0.740 10000.000 0.000 0.610 15000.000 0.000 -1.165
120 360.00 1500.01 179 827 0.740 10000.000 0.000 0.610 15000.000 0.000 -1.165
121 363.00 1500.01 173 819 0.740 10000.000 0.000 0.610 15000.000 0.000 -1.165
122 366.00 1500.01 148 838 0.740 10000.000 0.000 0.610 15000.000 0.000 -1.165
123 369.00 1500.01 177 886 0.740 10000.000 0.000 0.610 15000.000 0.000 -1.165
124 372.00 1500.01 211 885 0.740 10000.000 0.000 0.610 15000.000 0.000 -1.165
125 375.00 1500.01 206 879 0.740 10000.000 0.000 0.610 15000.000 0.000 -1.165
126 378.00 1500.01 213 882 0.740 10000.000 0.000 0.610 15000.000 0.000 -1.165
127 381.00 1500.01 230 843 0.740 10000.000 0.000 0.610 15000.000 0.000 -1.165
128 384.00 1500.01 236 802 0.740 10000.000 0.000 0.610 15000.000 0.000 -1.165
129 387.00 1500.01 245 742 0.740 10000.000 0.000 0.610 15000.000 0.000 -1.165
130 390.00 1500.01 243 721 0.740 10000.000 0.000 0.610 15000.000 0.000 -1.165
131 393.00 1500.01 218 650 0.740 10000.000 0.000 0.610 15000.000 0.000 -1.165
132 396.00 1500.01 263 559 0.740 10000.000 0.000 0.610 15000.000 0.000 -1.165
133 399.00 1500.01 252 526 0.740 10000.000 0.000 0.610 15000.000 0.000 -1.165
134 402.00 1500.01 272 444 0.740 10000.000 0.000 0.610 15000.000 0.000 -1.165
135 405.00 1500.01 250 438 0.740 10000.000 0.000 0.610 15000.000 0.000 -1.165
136 408.00 1500.01 251 436 0.740 10000.000 0.000 0.610 15000.000 0.000 -1.165
137 411.00 1500.01 244 437 0.740 10000.000 0.000 0.610 15000.000 0.000 -1.165
138 414.00 1500.01 244 488 0.740 10000.000 0.000 0.610 15000.000 0.000 -1.165
139 417.00 1500.01 227 511 0.740 10000.000 0.000 0.610 15000.000 0.000 -1.165
140 420.00 1500.01 209 553 0.740 10000.000 0.000 0.610 15000.000 0.000 -1.165
141 423.00 1500.01 225 580 0.740 10000.000 0.000 0.610 15000.000 0.000 -1.165
142 426.00 1500.01 235 706 0.740 10000.000 0.000 0.610 15000.000 0.000 -1.165
143 429.00 1500.01 230 783 0.740 10000.000 0.000 0.610 15000.000 0.000 -1.165
144 432.00 1500.01 224 894 0.740 10000.000 0.000 0.610 15000.000 0.000 -1.165
