# BinNR microsec tot-time (s)  O-Beam AUX Ampl_1(V) f_1(Hz) phase_1(deg) Ampl_2(V) f_2(Hz) phase_2(deg) chi(pos)
0 0.00 1200.02 104 383 1.500 10000.000 0.000 1.000 15000.000 0.000 -1.099
1 3.00 1200.02 241 716 1.500 10000.000 0.000 1.000 15000.000 0.000 -1.099
2 6.00 1200.02 238 742 1.500 10000.000 0.000 1.000 15000.000 0.000 -1.099
3 9.00 1200.02 277 633 1.500 10000.000 0.000 1.000 15000.000 0.000 -1.099
4 12.00 1200.02 301 621 1.500 10000.000 0.000 1.000 15000.000 0.000 -1.099
5 15.00 1200.02 261 657 1.500 10000.000 0.000 1.000 15000.000 0.000 -1.099
6 18.00 1200.02 304 634 1.500 10000.000 0.000 1.000 15000.000 0.000 -1.099
7 21.00 1200.02 293 645 1.500 10000.000 0.000 1.000 15000.000 0.000 -1.099
8 24.00 1200.02 314 654 1.500 10000.000 0.000 1.000 15000.000 0.000 -1.099
9 27.00 1200.02 273 680 1.500 10000.000 0.000 1.000 15000.000 0.000 -1.099
10 30.00 1200.02 278 679 1.500 10000.000 0.000 1.000 15000.000 0.000 -1.099
11 33.00 1200.02 248 760 1.500 10000.000 0.000 1.000 15000.000 0.000 -1.099
12 36.00 1200.02 251 783 1.500 10000.000 0.000 1.000 15000.000 0.000 -1.099
13 39.00 1200.02 236 738 1.500 10000.000 0.000 1.000 15000.000 0.000 -1.099
14 42.00 1200.02 204 794 1.500 10000.000 0.000 1.000 15000.000 0.000 -1.099
15 45.00 1200.02 169 737 1.500 10000.000 0.000 1.000 15000.000 0.000 -1.099
16 48.00 1200.02 190 710 1.500 10000.000 0.000 1.000 15000.000 0.000 -1.099
17 51.00 1200.02 176 678 1.500 10000.000 0.000 1.000 15000.000 0.000 -1.099
18 54.00 1200.02 156 677 1.500 10000.000 0.000 1.000 15000.000 0.000 -1.099
19 57.00 1200.02 175 597 1.500 10000.000 0.000 1.000 15000.000 0.000 -1.099
20 60.00 1200.02 158 537 1.500 10000.000 0.000 1.000 15000.000 0.000 -1.099
21 63.00 1200.02 176 461 1.500 10000.000 0.000 1.000 15000.000 0.000 -1.099
22 66.00 1200.02 155 437 1.500 10000.000 0.000 1.000 15000.000 0.000 -1.099
23 69.00 1200.02 150 375 1.500 10000.000 0.000 1.000 15000.000 0.000 -1.099
24 72.00 1200.02 191 382 1.500 10000.000 0.000 1.000 15000.000 0.000 -1.099
25 75.00 1200.02 186 295 1.500 10000.000 0.000 1.000 15000.000 0.000 -1.099
26 78.00 1200.02 191 318 1.500 10000.000 0.000 1.000 15000.000 0.000 -1.099
27 81.00 1200.02 191 318 1.500 10000.000 0.000 1.000 15000.000 0.000 -1.099
28 84.00 1200.02 236 343 1.500 10000.000 0.000 1.000 15000.000 0.000 -1.099
29 87.00 1200.02 245 323 1.500 10000.000 0.000 1.000 15000.000 0.000 -1.099
30 90.00 1200.02 248 413 1.500 10000.000 0.000 1.000 15000.000 0.000 -1.099
31 93.00 1200.02 237 517 1.500 10000.000 0.000 1.000 15000.000 0.000 -1.099
32 96.00 1200.02 239 603 1.500 10000.000 0.000 1.000 15000.000 0.000 -1.099
33 99.00 1200.02 205 631 1.500 10000.000 0.000 1.000 15000.000 0.000 -1.099
34 102.00 1200.02 263 776 1.500 10000.000 0.000 1.000 15000.000 0.000 -1.099
35 105.00 1200.02 245 814 1.500 10000.000 0.000 1.000 15000.000 0.000 -1.099
36 108.00 1200.02 228 880 1.500 10000.000 0.000 1.000 15000.000 0.000 -1.099
37 111.00 1200.02 234 843 1.500 10000.000 0.000 1.000 15000.000 0.000 -1.099
38 114.00 1200.02 239 935 1.500 10000.000 0.000 1.000 15000.000 0.000 -1.099
39 117.00 1200.02 215 910 1.500 10000.000 0.000 1.000 15000.000 0.000 -1.099
40 120.00 1200.02 219 938 1.500 10000.000 0.000 1.000 15000.000 0.000 -1.099
41 123.00 1200.02 214 900 1.500 10000.000 0.000 1.000 15000.000 0.000 -1.099
42 126.00 1200.02 221 896 1.500 10000.000 0.000 1.000 15000.000 0.000 -1.099
43 129.00 1200.02 215 847 1.500 10000.000 0.000 1.000 15000.000 0.000 -1.099
44 132.00 1200.02 235 786 1.500 10000.000 0.000 1.000 15000.000 0.000 -1.099
45 135.00 1200.02 218 665 1.500 10000.000 0.000 1.000 15000.000 0.000 -1.099
46 138.00 1200.02 260 625 1.500 10000.000 0.000 1.000 15000.000 0.000 -1.099
47 141.00 1200.02 250 515 1.500 10000.000 0.000 1.000 15000.000 0.000 -1.099
48 144.00 1200.02 267 431 1.500 10000.000 0.000 1.000 15000.000 0.000 -1.099
49 147.00 1200.02 205 378 1.500 10000.000 0.000 1.000 15000.000 0.000 -1.099
50 150.00 1200.02 248 318 1.500 10000.000 0.000 1.000 15000.000 0.000 -1.099
51 153.00 1200.02 224 317 1.500 10000.000 0.000 1.000 15000.000 0.000 -1.099
52 156.00 1200.02 233 340 1.500 10000.000 0.000 1.000 15000.000 0.000 -1.099
53 159.00 1200.02 193 310 1.500 10000.000 0.000 1.000 15000.000 0.000 -1.099
54 162.00 1200.02 184 340 1.500 10000.000 0.000 1.000 15000.000 0.000 -1.099
55 165.00 1200.02 195 367 1.500 10000.000 0.000 1.000 15000.000 0.000 -1.099
56 168.00 1200.02 167 438 1.500 10000.000 0.000 1.000 15000.000 0.000 -1.099
57 171.00 1200.02 163 464 1.500 10000.000 0.000 1.000 15000.000 0.000 -1.099
58 174.00 1200.02 185 538 1.500 10000.000 0.000 1.000 15000.000 0.000 -1.099
59 177.00 1200.02 148 588 1.500 10000.000 0.000 1.000 15000.000 0.000 -1.099
60 180.00 1200.02 142 678 1.500 10000.000 0.000 1.000 15000.000 0.000 -1.099
61 183.00 1200.02 156 680 1.500 10000.000 0.000 1.000 15000.000 0.000 -1.099
62 186.00 1200.02 170 755 1.500 10000.000 0.000 1.000 15000.000 0.000 -1.099
63 189.00 1200.02 179 716 1.500 10000.000 0.000 1.000 15000.000 0.000 -1.099
64 192.00 1200.02 188 739 1.500 10000.000 0.000 1.000 15000.000 0.000 -1.099
65 195.00 1200.02 209 793 1.500 10000.000 0.000 1.000 15000.000 0.000 -1.099
66 198.00 1200.02 217 774 1.500 10000.000 0.000 1.000 15000.000 0.000 -1.099
67 201.00 1200.02 248 759 1.500 10000.000 0.000 1.000 15000.000 0.000 -1.099
68 204.00 1200.02 230 674 1.500 10000.000 0.000 1.000 15000.000 0.000 -1.099
69 207.00 1200.02 244 722 1.500 10000.000 0.000 1.000 15000.000 0.000 -1.099
70 210.00 1200.02 284 677 1.500 10000.000 0.000 1.000 15000.000 0.000 -1.099
71 213.00 1200.02 298 671 1.500 10000.000 0.000 1.000 15000.000 0.000 -1.099
72 216.00 1200.02 308 605 1.500 10000.000 0.000 1.000 15000.000 0.000 -1.099
73 219.00 1200.02 307 581 1.500 10000.000 0.000 1.000 15000.000 0.000 -1.099
74 222.00 1200.02 262 663 1.500 10000.000 0.000 1.000 15000.000 0.000 -1.099
75 225.00 1200.02 287 671 1.500 10000.000 0.000 1.000 15000.000 0.000 -1.099
76 228.00 1200.02 296 689 1.500 10000.000 0.000 1.000 15000.000 0.000 -1.099
77 231.00 1200.02 245 692 1.500 10000.000 0.000 1.000 15000.000 0.000 -1.099
78 234.00 1200.02 259 714 1.500 10000.000 0.000 1.000 15000.000 0.000 -1.099
79 237.00 1200.02 262 769 1.500 10000.000 0.000 1.000 15000.000 0.000 -1.099
80 240.00 1200.02 241 809 1.500 10000.000 0.000 1.000 15000.000 0.000 -1.099
81 243.00 1200.02 198 785 1.500 10000.000 0.000 1.000 15000.000 0.000 -1.099
82 246.00 1200.02 180 795 1.500 10000.000 0.000 1.000 15000.000 0.000 -1.099
83 249.00 1200.02 151 719 1.500 10000.000 0.000 1.000 15000.000 0.000 -1.099
84 252.00 1200.02 169 660 1.500 10000.000 0.000 1.000 15000.000 0.000 -1.099
85 255.00 1200.02 174 637 1.500 10000.000 0.000 1.000 15000.000 0.000 -1.099
86 258.00 1200.02 146 614 1.500 10000.000 0.000 1.000 15000.000 0.000 -1.099
87 261.00 1200.02 152 476 1.500 10000.000 0.000 1.000 15000.000 0.000 -1.099
88 264.00 1200.02 166 492 1.500 10000.000 0.000 1.000 15000.000 0.000 -1.099
89 267.00 1200.02 183 416 1.500 10000.000 0.000 1.000 15000.000 0.000 -1.099
90 270.00 1200.02 196 369 1.500 10000.000 0.000 1.000 15000.000 0.000 -1.099
91 273.00 1200.02 176 326 1.500 10000.000 0.000 1.000 15000.000 0.000 -1.099
92 276.00 1200.02 179 308 1.500 10000.000 0.000 1.000 15000.000 0.000 -1.099
93 279.00 1200.02 182 279 1.500 10000.000 0.000 1.000 15000.000 0.000 -1.099
94 282.00 1200.02 206 309 1.500 10000.000 0.000 1.000 15000.000 0.000 -1.099
95 285.00 1200.02 213 355 1.500 10000.000 0.000 1.000 15000.000 0.000 -1.099
96 288.00 1200.02 248 410 1.500 10000.000 0.000 1.000 15000.000 0.000 -1.099
97 291.00 1200.02 249 458 1.500 10000.000 0.000 1.000 15000.000 0.000 -1.099
98 294.00 1200.02 235 508 1.500 10000.000 0.000 1.000 15000.000 0.000 -1.099
99 297.00 1200.02 245 646 1.500 10000.000 0.000 1.000 15000.000 0.000 -1.099
100 300.00 1200.02 226 681 1.500 10000.000 0.000 1.000 15000.000 0.000 -1.099
101 303.00 1200.02 232 770 1.500 10000.000 0.000 1.000 15000.000 0.000 -1.099
102 306.00 1200.02 225 888 1.500 10000.000 0.000 1.000 15000.000 0.000 -1.099
103 309.00 1200.02 207 861 1.500 10000.000 0.000 1.000 15000.000 0.000 -1.099
104 312.00 1200.02 237 910 1.500 10000.000 0.000 1.000 15000.000 0.000 -1.099
105 315.00 1200.02 231 899 1.500 10000.000 0.000 1.000 15000.000 0.000 -1.099
106 318.00 1200.02 227 922 1.500 10000.000 0.000 1.000 15000.000 0.000 -1.099
107 321.00 1200.02 214 848 1.500 10000.000 0.000 1.000 15000.000 0.000 -1.099
108 324.00 1200.02 226 895 1.500 10000.000 0.000 1.000 15000.000 0.000 -1.099
109 327.00 1200.02 243 881 1.500 10000.000 0.000 1.000 15000.000 0.000 -1.099
110 330.00 1200.02 258 849 1.500 10000.000 0.000 1.000 15000.000 0.000 -1.099
111 333.00 1200.02 210 792 1.500 10000.000 0.000 1.000 15000.000 0.000 -1.099
112 336.00 1200.02 242 746 1.500 10000.000 0.000 1.000 15000.000 0.000 -1.099
113 339.00 1200.02 234 594 1.500 10000.000 0.000 1.000 15000.000 0.000 -1.099
114 342.00 1200.02 244 529 1.500 10000.000 0.000 1.000 15000.000 0.000 -1.099
115 345.00 1200.02 251 398 1.500 10000.000 0.000 1.000 15000.000 0.000 -1.099
116 348.00 1200.02 225 342 1.500 10000.000 0.000 1.000 15000.000 0.000 -1.099
117 351.00 1200.02 231 317 1.500 10000.000 0.000 1.000 15000.000 0.000 -1.099
118 354.00 1200.02 248 320 1.500 10000.000 0.000 1.000 15000.000 0.000 -1.099
119 357.00 1200.02 181 344 1.500 10000.000 0.000 1.000 15000.000 0.000 -1.099
120 360.00 1200.02 222 329 1.500 10000.000 0.000 1.000 15000.000 0.000 -1.099
121 363.00 1200.02 207 336 1.500 10000.000 0.000 1.000 15000.000 0.000 -1.099
122 366.00 1200.02 179 387 1.500 10000.000 0.000 1.000 15000.000 0.000 -1.099
123 369.00 1200.02 163 450 1.500 10000.000 0.000 1.000 15000.000 0.000 -1.099
124 372.00 1200.02 145 503 1.500 10000.000 0.000 1.000 15000.000 0.000 -1.099
125 375.00 1200.02 161 535 1.500 10000.000 0.000 1.000 15000.000 0.000 -1.099
126 378.00 1200.02 155 605 1.500 10000.000 0.000 1.000 15000.000 0.000 -1.099
127 381.00 1200.02 160 669 1.500 10000.000 0.000 1.000 15000.000 0.000 -1.099
128 384.00 1200.02 159 724 1.500 10000.000 0.000 1.000 15000.000 0.000 -1.099
129 387.00 1200.02 160 748 1.500 10000.000 0.000 1.000 15000.000 0.000 -1.099
130 390.00 1200.02 179 743 1.500 10000.000 0.000 1.000 15000.000 0.000 -1.099
131 393.00 1200.02 182 734 1.500 10000.000 0.000 1.000 15000.000 0.000 -1.099
132 396.00 1200.02 201 719 1.500 10000.000 0.000 1.000 15000.000 0.000 -1.099
133 399.00 1200.02 226 739 1.500 10000.000 0.000 1.000 15000.000 0.000 -1.099
