# BinNR microsec tot-time (s)  O-Beam AUX Ampl_1(V) f_1(Hz) phase_1(deg) Ampl_2(V) f_2(Hz) phase_2(deg) chi(pos)
0 0.00 1200.02 71 76 1.500 10000.000 0.000 1.000 15000.000 0.000 0.494
1 3.00 1200.02 148 170 1.500 10000.000 0.000 1.000 15000.000 0.000 0.494
2 6.00 1200.02 139 169 1.500 10000.000 0.000 1.000 15000.000 0.000 0.494
3 9.00 1200.02 143 127 1.500 10000.000 0.000 1.000 15000.000 0.000 0.494
4 12.00 1200.02 152 151 1.500 10000.000 0.000 1.000 15000.000 0.000 0.494
5 15.00 1200.02 160 136 1.500 10000.000 0.000 1.000 15000.000 0.000 0.494
6 18.00 1200.02 180 138 1.500 10000.000 0.000 1.000 15000.000 0.000 0.494
7 21.00 1200.02 170 146 1.500 10000.000 0.000 1.000 15000.000 0.000 0.494
8 24.00 1200.02 162 166 1.500 10000.000 0.000 1.000 15000.000 0.000 0.494
9 27.00 1200.02 133 188 1.500 10000.000 0.000 1.000 15000.000 0.000 0.494
10 30.00 1200.02 142 174 1.500 10000.000 0.000 1.000 15000.000 0.000 0.494
11 33.00 1200.02 153 212 1.500 10000.000 0.000 1.000 15000.000 0.000 0.494
12 36.00 1200.02 119 205 1.500 10000.000 0.000 1.000 15000.000 0.000 0.494
13 39.00 1200.02 81 173 1.500 10000.000 0.000 1.000 15000.000 0.000 0.494
14 42.00 1200.02 102 223 1.500 10000.000 0.000 1.000 15000.000 0.000 0.494
15 45.00 1200.02 128 200 1.500 10000.000 0.000 1.000 15000.000 0.000 0.494
16 48.00 1200.02 139 184 1.500 10000.000 0.000 1.000 15000.000 0.000 0.494
17 51.00 1200.02 134 184 1.500 10000.000 0.000 1.000 15000.000 0.000 0.494
18 54.00 1200.02 140 160 1.500 10000.000 0.000 1.000 15000.000 0.000 0.494
19 57.00 1200.02 151 144 1.500 10000.000 0.000 1.000 15000.000 0.000 0.494
20 60.00 1200.02 159 145 1.500 10000.000 0.000 1.000 15000.000 0.000 0.494
21 63.00 1200.02 133 126 1.500 10000.000 0.000 1.000 15000.000 0.000 0.494
22 66.00 1200.02 161 136 1.500 10000.000 0.000 1.000 15000.000 0.000 0.494
23 69.00 1200.02 161 207 1.500 10000.000 0.000 1.000 15000.000 0.000 0.494
24 72.00 1200.02 117 234 1.500 10000.000 0.000 1.000 15000.000 0.000 0.494
25 75.00 1200.02 136 244 1.500 10000.000 0.000 1.000 15000.000 0.000 0.494
26 78.00 1200.02 107 275 1.500 10000.000 0.000 1.000 15000.000 0.000 0.494
27 81.00 1200.02 111 272 1.500 10000.000 0.000 1.000 15000.000 0.000 0.494
28 84.00 1200.02 113 275 1.500 10000.000 0.000 1.000 15000.000 0.000 0.494
29 87.00 1200.02 112 204 1.500 10000.000 0.000 1.000 15000.000 0.000 0.494
30 90.00 1200.02 121 157 1.500 10000.000 0.000 1.000 15000.000 0.000 0.494
31 93.00 1200.02 90 127 1.500 10000.000 0.000 1.000 15000.000 0.000 0.494
32 96.00 1200.02 117 125 1.500 10000.000 0.000 1.000 15000.000 0.000 0.494
33 99.00 1200.02 97 172 1.500 10000.000 0.000 1.000 15000.000 0.000 0.494
34 102.00 1200.02 101 204 1.500 10000.000 0.000 1.000 15000.000 0.000 0.494
35 105.00 1200.02 113 290 1.500 10000.000 0.000 1.000 15000.000 0.000 0.494
36 108.00 1200.02 93 334 1.500 10000.000 0.000 1.000 15000.000 0.000 0.494
37 111.00 1200.02 105 399 1.500 10000.000 0.000 1.000 15000.000 0.000 0.494
38 114.00 1200.02 104 486 1.500 10000.000 0.000 1.000 15000.000 0.000 0.494
39 117.00 1200.02 101 476 1.500 10000.000 0.000 1.000 15000.000 0.000 0.494
40 120.00 1200.02 99 465 1.500 10000.000 0.000 1.000 15000.000 0.000 0.494
41 123.00 1200.02 95 423 1.500 10000.000 0.000 1.000 15000.000 0.000 0.494
42 126.00 1200.02 111 396 1.500 10000.000 0.000 1.000 15000.000 0.000 0.494
43 129.00 1200.02 110 327 1.500 10000.000 0.000 1.000 15000.000 0.000 0.494
44 132.00 1200.02 113 222 1.500 10000.000 0.000 1.000 15000.000 0.000 0.494
45 135.00 1200.02 116 187 1.500 10000.000 0.000 1.000 15000.000 0.000 0.494
46 138.00 1200.02 122 137 1.500 10000.000 0.000 1.000 15000.000 0.000 0.494
47 141.00 1200.02 120 136 1.500 10000.000 0.000 1.000 15000.000 0.000 0.494
48 144.00 1200.02 102 147 1.500 10000.000 0.000 1.000 15000.000 0.000 0.494
49 147.00 1200.02 97 193 1.500 10000.000 0.000 1.000 15000.000 0.000 0.494
50 150.00 1200.02 108 233 1.500 10000.000 0.000 1.000 15000.000 0.000 0.494
51 153.00 1200.02 107 269 1.500 10000.000 0.000 1.000 15000.000 0.000 0.494
52 156.00 1200.02 87 248 1.500 10000.000 0.000 1.000 15000.000 0.000 0.494
53 159.00 1200.02 117 271 1.500 10000.000 0.000 1.000 15000.000 0.000 0.494
54 162.00 1200.02 111 246 1.500 10000.000 0.000 1.000 15000.000 0.000 0.494
55 165.00 1200.02 110 193 1.500 10000.000 0.000 1.000 15000.000 0.000 0.494
56 168.00 1200.02 125 196 1.500 10000.000 0.000 1.000 15000.000 0.000 0.494
57 171.00 1200.02 129 141 1.500 10000.000 0.000 1.000 15000.000 0.000 0.494
58 174.00 1200.02 138 125 1.500 10000.000 0.000 1.000 15000.000 0.000 0.494
59 177.00 1200.02 143 127 1.500 10000.000 0.000 1.000 15000.000 0.000 0.494
60 180.00 1200.02 141 136 1.500 10000.000 0.000 1.000 15000.000 0.000 0.494
61 183.00 1200.02 152 158 1.500 10000.000 0.000 1.000 15000.000 0.000 0.494
62 186.00 1200.02 166 179 1.500 10000.000 0.000 1.000 15000.000 0.000 0.494
63 189.00 1200.02 143 208 1.500 10000.000 0.000 1.000 15000.000 0.000 0.494
64 192.00 1200.02 152 197 1.500 10000.000 0.000 1.000 15000.000 0.000 0.494
65 195.00 1200.02 134 176 1.500 10000.000 0.000 1.000 15000.000 0.000 0.494
66 198.00 1200.02 130 217 1.500 10000.000 0.000 1.000 15000.000 0.000 0.494
67 201.00 1200.02 126 217 1.500 10000.000 0.000 1.000 15000.000 0.000 0.494
68 204.00 1200.02 120 159 1.500 10000.000 0.000 1.000 15000.000 0.000 0.494
69 207.00 1200.02 128 178 1.500 10000.000 0.000 1.000 15000.000 0.000 0.494
70 210.00 1200.02 155 152 1.500 10000.000 0.000 1.000 15000.000 0.000 0.494
71 213.00 1200.02 133 142 1.500 10000.000 0.000 1.000 15000.000 0.000 0.494
72 216.00 1200.02 180 147 1.500 10000.000 0.000 1.000 15000.000 0.000 0.494
73 219.00 1200.02 157 142 1.500 10000.000 0.000 1.000 15000.000 0.000 0.494
74 222.00 1200.02 164 129 1.500 10000.000 0.000 1.000 15000.000 0.000 0.494
75 225.00 1200.02 155 154 1.500 10000.000 0.000 1.000 15000.000 0.000 0.494
76 228.00 1200.02 177 143 1.500 10000.000 0.000 1.000 15000.000 0.000 0.494
77 231.00 1200.02 139 177 1.500 10000.000 0.000 1.000 15000.000 0.000 0.494
78 234.00 1200.02 123 161 1.500 10000.000 0.000 1.000 15000.000 0.000 0.494
79 237.00 1200.02 116 212 1.500 10000.000 0.000 1.000 15000.000 0.000 0.494
80 240.00 1200.02 118 219 1.500 10000.000 0.000 1.000 15000.000 0.000 0.494
81 243.00 1200.02 119 219 1.500 10000.000 0.000 1.000 15000.000 0.000 0.494
82 246.00 1200.02 116 208 1.500 10000.000 0.000 1.000 15000.000 0.000 0.494
83 249.00 1200.02 129 192 1.500 10000.000 0.000 1.000 15000.000 0.000 0.494
84 252.00 1200.02 160 167 1.500 10000.000 0.000 1.000 15000.000 0.000 0.494
85 255.00 1200.02 160 156 1.500 10000.000 0.000 1.000 15000.000 0.000 0.494
86 258.00 1200.02 152 136 1.500 10000.000 0.000 1.000 15000.000 0.000 0.494
87 261.00 1200.02 152 150 1.500 10000.000 0.000 1.000 15000.000 0.000 0.494
88 264.00 1200.02 143 149 1.500 10000.000 0.000 1.000 15000.000 0.000 0.494
89 267.00 1200.02 140 194 1.500 10000.000 0.000 1.000 15000.000 0.000 0.494
90 270.00 1200.02 149 227 1.500 10000.000 0.000 1.000 15000.000 0.000 0.494
91 273.00 1200.02 125 203 1.500 10000.000 0.000 1.000 15000.000 0.000 0.494
92 276.00 1200.02 118 275 1.500 10000.000 0.000 1.000 15000.000 0.000 0.494
93 279.00 1200.02 114 264 1.500 10000.000 0.000 1.000 15000.000 0.000 0.494
94 282.00 1200.02 140 242 1.500 10000.000 0.000 1.000 15000.000 0.000 0.494
95 285.00 1200.02 102 238 1.500 10000.000 0.000 1.000 15000.000 0.000 0.494
96 288.00 1200.02 107 220 1.500 10000.000 0.000 1.000 15000.000 0.000 0.494
97 291.00 1200.02 115 158 1.500 10000.000 0.000 1.000 15000.000 0.000 0.494
98 294.00 1200.02 114 148 1.500 10000.000 0.000 1.000 15000.000 0.000 0.494
99 297.00 1200.02 103 140 1.500 10000.000 0.000 1.000 15000.000 0.000 0.494
100 300.00 1200.02 99 170 1.500 10000.000 0.000 1.000 15000.000 0.000 0.494
101 303.00 1200.02 86 239 1.500 10000.000 0.000 1.000 15000.000 0.000 0.494
102 306.00 1200.02 95 328 1.500 10000.000 0.000 1.000 15000.000 0.000 0.494
103 309.00 1200.02 97 345 1.500 10000.000 0.000 1.000 15000.000 0.000 0.494
104 312.00 1200.02 103 431 1.500 10000.000 0.000 1.000 15000.000 0.000 0.494
105 315.00 1200.02 104 488 1.500 10000.000 0.000 1.000 15000.000 0.000 0.494
106 318.00 1200.02 87 482 1.500 10000.000 0.000 1.000 15000.000 0.000 0.494
107 321.00 1200.02 107 476 1.500 10000.000 0.000 1.000 15000.000 0.000 0.494
108 324.00 1200.02 102 443 1.500 10000.000 0.000 1.000 15000.000 0.000 0.494
109 327.00 1200.02 109 375 1.500 10000.000 0.000 1.000 15000.000 0.000 0.494
110 330.00 1200.02 87 293 1.500 10000.000 0.000 1.000 15000.000 0.000 0.494
111 333.00 1200.02 119 222 1.500 10000.000 0.000 1.000 15000.000 0.000 0.494
112 336.00 1200.02 117 162 1.500 10000.000 0.000 1.000 15000.000 0.000 0.494
113 339.00 1200.02 91 140 1.500 10000.000 0.000 1.000 15000.000 0.000 0.494
114 342.00 1200.02 120 165 1.500 10000.000 0.000 1.000 15000.000 0.000 0.494
115 345.00 1200.02 100 157 1.500 10000.000 0.000 1.000 15000.000 0.000 0.494
116 348.00 1200.02 133 200 1.500 10000.000 0.000 1.000 15000.000 0.000 0.494
117 351.00 1200.02 101 230 1.500 10000.000 0.000 1.000 15000.000 0.000 0.494
118 354.00 1200.02 108 263 1.500 10000.000 0.000 1.000 15000.000 0.000 0.494
119 357.00 1200.02 130 256 1.500 10000.000 0.000 1.000 15000.000 0.000 0.494
120 360.00 1200.02 98 273 1.500 10000.000 0.000 1.000 15000.000 0.000 0.494
121 363.00 1200.02 117 248 1.500 10000.000 0.000 1.000 15000.000 0.000 0.494
122 366.00 1200.02 110 196 1.500 10000.000 0.000 1.000 15000.000 0.000 0.494
123 369.00 1200.02 117 172 1.500 10000.000 0.000 1.000 15000.000 0.000 0.494
124 372.00 1200.02 153 166 1.500 10000.000 0.000 1.000 15000.000 0.000 0.494
125 375.00 1200.02 129 149 1.500 10000.000 0.000 1.000 15000.000 0.000 0.494
126 378.00 1200.02 152 115 1.500 10000.000 0.000 1.000 15000.000 0.000 0.494
127 381.00 1200.02 122 119 1.500 10000.000 0.000 1.000 15000.000 0.000 0.494
128 384.00 1200.02 150 179 1.500 10000.000 0.000 1.000 15000.000 0.000 0.494
129 387.00 1200.02 143 186 1.500 10000.000 0.000 1.000 15000.000 0.000 0.494
130 390.00 1200.02 133 184 1.500 10000.000 0.000 1.000 15000.000 0.000 0.494
131 393.00 1200.02 126 183 1.500 10000.000 0.000 1.000 15000.000 0.000 0.494
132 396.00 1200.02 132 158 1.500 10000.000 0.000 1.000 15000.000 0.000 0.494
133 399.00 1200.02 107 195 1.500 10000.000 0.000 1.000 15000.000 0.000 0.494
