# BinNR microsec tot-time (s)  O-Beam AUX Ampl_1(V) f_1(Hz) phase_1(deg) Ampl_2(V) f_2(Hz) phase_2(deg) chi(pos)
0 0.00 1200.02 142 334 1.500 10000.000 0.000 1.000 15000.000 0.000 -0.297
1 3.00 1200.02 277 669 1.500 10000.000 0.000 1.000 15000.000 0.000 -0.297
2 6.00 1200.02 261 714 1.500 10000.000 0.000 1.000 15000.000 0.000 -0.297
3 9.00 1200.02 227 731 1.500 10000.000 0.000 1.000 15000.000 0.000 -0.297
4 12.00 1200.02 239 781 1.500 10000.000 0.000 1.000 15000.000 0.000 -0.297
5 15.00 1200.02 209 742 1.500 10000.000 0.000 1.000 15000.000 0.000 -0.297
6 18.00 1200.02 199 771 1.500 10000.000 0.000 1.000 15000.000 0.000 -0.297
7 21.00 1200.02 220 748 1.500 10000.000 0.000 1.000 15000.000 0.000 -0.297
8 24.00 1200.02 226 667 1.500 10000.000 0.000 1.000 15000.000 0.000 -0.297
9 27.00 1200.02 215 702 1.500 10000.000 0.000 1.000 15000.000 0.000 -0.297
10 30.00 1200.02 203 680 1.500 10000.000 0.000 1.000 15000.000 0.000 -0.297
11 33.00 1200.02 228 621 1.500 10000.000 0.000 1.000 15000.000 0.000 -0.297
12 36.00 1200.02 298 690 1.500 10000.000 0.000 1.000 15000.000 0.000 -0.297
13 39.00 1200.02 284 626 1.500 10000.000 0.000 1.000 15000.000 0.000 -0.297
14 42.00 1200.02 312 657 1.500 10000.000 0.000 1.000 15000.000 0.000 -0.297
15 45.00 1200.02 333 685 1.500 10000.000 0.000 1.000 15000.000 0.000 -0.297
16 48.00 1200.02 313 720 1.500 10000.000 0.000 1.000 15000.000 0.000 -0.297
17 51.00 1200.02 294 653 1.500 10000.000 0.000 1.000 15000.000 0.000 -0.297
18 54.00 1200.02 328 717 1.500 10000.000 0.000 1.000 15000.000 0.000 -0.297
19 57.00 1200.02 311 772 1.500 10000.000 0.000 1.000 15000.000 0.000 -0.297
20 60.00 1200.02 336 811 1.500 10000.000 0.000 1.000 15000.000 0.000 -0.297
21 63.00 1200.02 318 853 1.500 10000.000 0.000 1.000 15000.000 0.000 -0.297
22 66.00 1200.02 313 863 1.500 10000.000 0.000 1.000 15000.000 0.000 -0.297
23 69.00 1200.02 282 865 1.500 10000.000 0.000 1.000 15000.000 0.000 -0.297
24 72.00 1200.02 300 890 1.500 10000.000 0.000 1.000 15000.000 0.000 -0.297
25 75.00 1200.02 317 838 1.500 10000.000 0.000 1.000 15000.000 0.000 -0.297
26 78.00 1200.02 298 902 1.500 10000.000 0.000 1.000 15000.000 0.000 -0.297
27 81.00 1200.02 291 774 1.500 10000.000 0.000 1.000 15000.000 0.000 -0.297
28 84.00 1200.02 300 911 1.500 10000.000 0.000 1.000 15000.000 0.000 -0.297
29 87.00 1200.02 314 938 1.500 10000.000 0.000 1.000 15000.000 0.000 -0.297
30 90.00 1200.02 279 869 1.500 10000.000 0.000 1.000 15000.000 0.000 -0.297
31 93.00 1200.02 265 823 1.500 10000.000 0.000 1.000 15000.000 0.000 -0.297
32 96.00 1200.02 287 807 1.500 10000.000 0.000 1.000 15000.000 0.000 -0.297
33 99.00 1200.02 270 760 1.500 10000.000 0.000 1.000 15000.000 0.000 -0.297
34 102.00 1200.02 263 701 1.500 10000.000 0.000 1.000 15000.000 0.000 -0.297
35 105.00 1200.02 288 534 1.500 10000.000 0.000 1.000 15000.000 0.000 -0.297
36 108.00 1200.02 277 482 1.500 10000.000 0.000 1.000 15000.000 0.000 -0.297
37 111.00 1200.02 321 383 1.500 10000.000 0.000 1.000 15000.000 0.000 -0.297
38 114.00 1200.02 313 378 1.500 10000.000 0.000 1.000 15000.000 0.000 -0.297
39 117.00 1200.02 302 362 1.500 10000.000 0.000 1.000 15000.000 0.000 -0.297
40 120.00 1200.02 300 347 1.500 10000.000 0.000 1.000 15000.000 0.000 -0.297
41 123.00 1200.02 281 399 1.500 10000.000 0.000 1.000 15000.000 0.000 -0.297
42 126.00 1200.02 281 419 1.500 10000.000 0.000 1.000 15000.000 0.000 -0.297
43 129.00 1200.02 293 484 1.500 10000.000 0.000 1.000 15000.000 0.000 -0.297
44 132.00 1200.02 255 578 1.500 10000.000 0.000 1.000 15000.000 0.000 -0.297
45 135.00 1200.02 304 697 1.500 10000.000 0.000 1.000 15000.000 0.000 -0.297
46 138.00 1200.02 283 816 1.500 10000.000 0.000 1.000 15000.000 0.000 -0.297
47 141.00 1200.02 271 768 1.500 10000.000 0.000 1.000 15000.000 0.000 -0.297
48 144.00 1200.02 271 857 1.500 10000.000 0.000 1.000 15000.000 0.000 -0.297
49 147.00 1200.02 278 920 1.500 10000.000 0.000 1.000 15000.000 0.000 -0.297
50 150.00 1200.02 316 872 1.500 10000.000 0.000 1.000 15000.000 0.000 -0.297
51 153.00 1200.02 299 836 1.500 10000.000 0.000 1.000 15000.000 0.000 -0.297
52 156.00 1200.02 290 863 1.500 10000.000 0.000 1.000 15000.000 0.000 -0.297
53 159.00 1200.02 326 852 1.500 10000.000 0.000 1.000 15000.000 0.000 -0.297
54 162.00 1200.02 328 907 1.500 10000.000 0.000 1.000 15000.000 0.000 -0.297
55 165.00 1200.02 331 833 1.500 10000.000 0.000 1.000 15000.000 0.000 -0.297
56 168.00 1200.02 341 884 1.500 10000.000 0.000 1.000 15000.000 0.000 -0.297
57 171.00 1200.02 306 815 1.500 10000.000 0.000 1.000 15000.000 0.000 -0.297
58 174.00 1200.02 316 842 1.500 10000.000 0.000 1.000 15000.000 0.000 -0.297
59 177.00 1200.02 316 767 1.500 10000.000 0.000 1.000 15000.000 0.000 -0.297
60 180.00 1200.02 302 747 1.500 10000.000 0.000 1.000 15000.000 0.000 -0.297
61 183.00 1200.02 292 691 1.500 10000.000 0.000 1.000 15000.000 0.000 -0.297
62 186.00 1200.02 294 709 1.500 10000.000 0.000 1.000 15000.000 0.000 -0.297
63 189.00 1200.02 313 637 1.500 10000.000 0.000 1.000 15000.000 0.000 -0.297
64 192.00 1200.02 275 673 1.500 10000.000 0.000 1.000 15000.000 0.000 -0.297
65 195.00 1200.02 303 627 1.500 10000.000 0.000 1.000 15000.000 0.000 -0.297
66 198.00 1200.02 300 706 1.500 10000.000 0.000 1.000 15000.000 0.000 -0.297
67 201.00 1200.02 249 661 1.500 10000.000 0.000 1.000 15000.000 0.000 -0.297
68 204.00 1200.02 270 702 1.500 10000.000 0.000 1.000 15000.000 0.000 -0.297
69 207.00 1200.02 280 694 1.500 10000.000 0.000 1.000 15000.000 0.000 -0.297
70 210.00 1200.02 239 757 1.500 10000.000 0.000 1.000 15000.000 0.000 -0.297
71 213.00 1200.02 226 750 1.500 10000.000 0.000 1.000 15000.000 0.000 -0.297
72 216.00 1200.02 209 759 1.500 10000.000 0.000 1.000 15000.000 0.000 -0.297
73 219.00 1200.02 199 737 1.500 10000.000 0.000 1.000 15000.000 0.000 -0.297
74 222.00 1200.02 228 746 1.500 10000.000 0.000 1.000 15000.000 0.000 -0.297
75 225.00 1200.02 213 753 1.500 10000.000 0.000 1.000 15000.000 0.000 -0.297
76 228.00 1200.02 267 695 1.500 10000.000 0.000 1.000 15000.000 0.000 -0.297
77 231.00 1200.02 235 670 1.500 10000.000 0.000 1.000 15000.000 0.000 -0.297
78 234.00 1200.02 271 673 1.500 10000.000 0.000 1.000 15000.000 0.000 -0.297
79 237.00 1200.02 277 655 1.500 10000.000 0.000 1.000 15000.000 0.000 -0.297
80 240.00 1200.02 284 641 1.500 10000.000 0.000 1.000 15000.000 0.000 -0.297
81 243.00 1200.02 323 670 1.500 10000.000 0.000 1.000 15000.000 0.000 -0.297
82 246.00 1200.02 313 660 1.500 10000.000 0.000 1.000 15000.000 0.000 -0.297
83 249.00 1200.02 321 702 1.500 10000.000 0.000 1.000 15000.000 0.000 -0.297
84 252.00 1200.02 313 709 1.500 10000.000 0.000 1.000 15000.000 0.000 -0.297
85 255.00 1200.02 328 766 1.500 10000.000 0.000 1.000 15000.000 0.000 -0.297
86 258.00 1200.02 300 886 1.500 10000.000 0.000 1.000 15000.000 0.000 -0.297
87 261.00 1200.02 297 879 1.500 10000.000 0.000 1.000 15000.000 0.000 -0.297
88 264.00 1200.02 331 829 1.500 10000.000 0.000 1.000 15000.000 0.000 -0.297
89 267.00 1200.02 312 917 1.500 10000.000 0.000 1.000 15000.000 0.000 -0.297
90 270.00 1200.02 301 901 1.500 10000.000 0.000 1.000 15000.000 0.000 -0.297
91 273.00 1200.02 331 943 1.500 10000.000 0.000 1.000 15000.000 0.000 -0.297
92 276.00 1200.02 341 866 1.500 10000.000 0.000 1.000 15000.000 0.000 -0.297
93 279.00 1200.02 289 901 1.500 10000.000 0.000 1.000 15000.000 0.000 -0.297
94 282.00 1200.02 313 914 1.500 10000.000 0.000 1.000 15000.000 0.000 -0.297
95 285.00 1200.02 302 889 1.500 10000.000 0.000 1.000 15000.000 0.000 -0.297
96 288.00 1200.02 294 904 1.500 10000.000 0.000 1.000 15000.000 0.000 -0.297
97 291.00 1200.02 297 862 1.500 10000.000 0.000 1.000 15000.000 0.000 -0.297
98 294.00 1200.02 294 879 1.500 10000.000 0.000 1.000 15000.000 0.000 -0.297
99 297.00 1200.02 294 790 1.500 10000.000 0.000 1.000 15000.000 0.000 -0.297
100 300.00 1200.02 342 700 1.500 10000.000 0.000 1.000 15000.000 0.000 -0.297
101 303.00 1200.02 301 591 1.500 10000.000 0.000 1.000 15000.000 0.000 -0.297
102 306.00 1200.02 288 509 1.500 10000.000 0.000 1.000 15000.000 0.000 -0.297
103 309.00 1200.02 313 438 1.500 10000.000 0.000 1.000 15000.000 0.000 -0.297
104 312.00 1200.02 305 404 1.500 10000.000 0.000 1.000 15000.000 0.000 -0.297
105 315.00 1200.02 315 314 1.500 10000.000 0.000 1.000 15000.000 0.000 -0.297
106 318.00 1200.02 307 327 1.500 10000.000 0.000 1.000 15000.000 0.000 -0.297
107 321.00 1200.02 294 340 1.500 10000.000 0.000 1.000 15000.000 0.000 -0.297
108 324.00 1200.02 301 395 1.500 10000.000 0.000 1.000 15000.000 0.000 -0.297
109 327.00 1200.02 289 479 1.500 10000.000 0.000 1.000 15000.000 0.000 -0.297
110 330.00 1200.02 259 561 1.500 10000.000 0.000 1.000 15000.000 0.000 -0.297
111 333.00 1200.02 317 635 1.500 10000.000 0.000 1.000 15000.000 0.000 -0.297
112 336.00 1200.02 298 739 1.500 10000.000 0.000 1.000 15000.000 0.000 -0.297
113 339.00 1200.02 273 761 1.500 10000.000 0.000 1.000 15000.000 0.000 -0.297
114 342.00 1200.02 281 883 1.500 10000.000 0.000 1.000 15000.000 0.000 -0.297
115 345.00 1200.02 291 848 1.500 10000.000 0.000 1.000 15000.000 0.000 -0.297
116 348.00 1200.02 275 843 1.500 10000.000 0.000 1.000 15000.000 0.000 -0.297
117 351.00 1200.02 264 852 1.500 10000.000 0.000 1.000 15000.000 0.000 -0.297
118 354.00 1200.02 312 912 1.500 10000.000 0.000 1.000 15000.000 0.000 -0.297
119 357.00 1200.02 311 911 1.500 10000.000 0.000 1.000 15000.000 0.000 -0.297
120 360.00 1200.02 300 815 1.500 10000.000 0.000 1.000 15000.000 0.000 -0.297
121 363.00 1200.02 305 883 1.500 10000.000 0.000 1.000 15000.000 0.000 -0.297
122 366.00 1200.02 288 837 1.500 10000.000 0.000 1.000 15000.000 0.000 -0.297
123 369.00 1200.02 316 854 1.500 10000.000 0.000 1.000 15000.000 0.000 -0.297
124 372.00 1200.02 328 854 1.500 10000.000 0.000 1.000 15000.000 0.000 -0.297
125 375.00 1200.02 316 863 1.500 10000.000 0.000 1.000 15000.000 0.000 -0.297
126 378.00 1200.02 319 827 1.500 10000.000 0.000 1.000 15000.000 0.000 -0.297
127 381.00 1200.02 301 760 1.500 10000.000 0.000 1.000 15000.000 0.000 -0.297
128 384.00 1200.02 321 704 1.500 10000.000 0.000 1.000 15000.000 0.000 -0.297
129 387.00 1200.02 318 709 1.500 10000.000 0.000 1.000 15000.000 0.000 -0.297
130 390.00 1200.02 300 655 1.500 10000.000 0.000 1.000 15000.000 0.000 -0.297
131 393.00 1200.02 311 654 1.500 10000.000 0.000 1.000 15000.000 0.000 -0.297
132 396.00 1200.02 297 650 1.500 10000.000 0.000 1.000 15000.000 0.000 -0.297
133 399.00 1200.02 301 720 1.500 10000.000 0.000 1.000 15000.000 0.000 -0.297
