# BinNR microsec tot-time (s)  O-Beam AUX Ampl_1(V) f_1(Hz) phase_1(deg) Ampl_2(V) f_2(Hz) phase_2(deg) chi(pos)
0 0.00 1200.01 160 480 1.500 10000.000 0.000 1.000 15000.000 0.000 1.505
1 3.00 1200.01 272 910 1.500 10000.000 0.000 1.000 15000.000 0.000 1.505
2 6.00 1200.01 275 908 1.500 10000.000 0.000 1.000 15000.000 0.000 1.505
3 9.00 1200.01 277 849 1.500 10000.000 0.000 1.000 15000.000 0.000 1.505
4 12.00 1200.01 279 929 1.500 10000.000 0.000 1.000 15000.000 0.000 1.505
5 15.00 1200.01 266 882 1.500 10000.000 0.000 1.000 15000.000 0.000 1.505
6 18.00 1200.01 293 883 1.500 10000.000 0.000 1.000 15000.000 0.000 1.505
7 21.00 1200.01 279 904 1.500 10000.000 0.000 1.000 15000.000 0.000 1.505
8 24.00 1200.01 292 950 1.500 10000.000 0.000 1.000 15000.000 0.000 1.505
9 27.00 1200.01 282 904 1.500 10000.000 0.000 1.000 15000.000 0.000 1.505
10 30.00 1200.01 331 941 1.500 10000.000 0.000 1.000 15000.000 0.000 1.505
11 33.00 1200.01 323 871 1.500 10000.000 0.000 1.000 15000.000 0.000 1.505
12 36.00 1200.01 319 856 1.500 10000.000 0.000 1.000 15000.000 0.000 1.505
13 39.00 1200.01 288 871 1.500 10000.000 0.000 1.000 15000.000 0.000 1.505
14 42.00 1200.01 331 841 1.500 10000.000 0.000 1.000 15000.000 0.000 1.505
15 45.00 1200.01 293 858 1.500 10000.000 0.000 1.000 15000.000 0.000 1.505
16 48.00 1200.01 297 896 1.500 10000.000 0.000 1.000 15000.000 0.000 1.505
17 51.00 1200.01 293 928 1.500 10000.000 0.000 1.000 15000.000 0.000 1.505
18 54.00 1200.01 263 895 1.500 10000.000 0.000 1.000 15000.000 0.000 1.505
19 57.00 1200.01 264 901 1.500 10000.000 0.000 1.000 15000.000 0.000 1.505
20 60.00 1200.01 284 966 1.500 10000.000 0.000 1.000 15000.000 0.000 1.505
21 63.00 1200.01 293 836 1.500 10000.000 0.000 1.000 15000.000 0.000 1.505
22 66.00 1200.01 286 883 1.500 10000.000 0.000 1.000 15000.000 0.000 1.505
23 69.00 1200.01 280 773 1.500 10000.000 0.000 1.000 15000.000 0.000 1.505
24 72.00 1200.01 269 793 1.500 10000.000 0.000 1.000 15000.000 0.000 1.505
25 75.00 1200.01 269 813 1.500 10000.000 0.000 1.000 15000.000 0.000 1.505
26 78.00 1200.01 305 779 1.500 10000.000 0.000 1.000 15000.000 0.000 1.505
27 81.00 1200.01 276 830 1.500 10000.000 0.000 1.000 15000.000 0.000 1.505
28 84.00 1200.01 294 791 1.500 10000.000 0.000 1.000 15000.000 0.000 1.505
29 87.00 1200.01 303 825 1.500 10000.000 0.000 1.000 15000.000 0.000 1.505
30 90.00 1200.01 305 925 1.500 10000.000 0.000 1.000 15000.000 0.000 1.505
31 93.00 1200.01 314 933 1.500 10000.000 0.000 1.000 15000.000 0.000 1.505
32 96.00 1200.01 308 866 1.500 10000.000 0.000 1.000 15000.000 0.000 1.505
33 99.00 1200.01 297 884 1.500 10000.000 0.000 1.000 15000.000 0.000 1.505
34 102.00 1200.01 339 897 1.500 10000.000 0.000 1.000 15000.000 0.000 1.505
35 105.00 1200.01 330 801 1.500 10000.000 0.000 1.000 15000.000 0.000 1.505
36 108.00 1200.01 346 770 1.500 10000.000 0.000 1.000 15000.000 0.000 1.505
37 111.00 1200.01 350 647 1.500 10000.000 0.000 1.000 15000.000 0.000 1.505
38 114.00 1200.01 329 651 1.500 10000.000 0.000 1.000 15000.000 0.000 1.505
39 117.00 1200.01 355 547 1.500 10000.000 0.000 1.000 15000.000 0.000 1.505
40 120.00 1200.01 364 614 1.500 10000.000 0.000 1.000 15000.000 0.000 1.505
41 123.00 1200.01 318 629 1.500 10000.000 0.000 1.000 15000.000 0.000 1.505
42 126.00 1200.01 316 670 1.500 10000.000 0.000 1.000 15000.000 0.000 1.505
43 129.00 1200.01 342 744 1.500 10000.000 0.000 1.000 15000.000 0.000 1.505
44 132.00 1200.01 328 828 1.500 10000.000 0.000 1.000 15000.000 0.000 1.505
45 135.00 1200.01 331 883 1.500 10000.000 0.000 1.000 15000.000 0.000 1.505
46 138.00 1200.01 326 909 1.500 10000.000 0.000 1.000 15000.000 0.000 1.505
47 141.00 1200.01 293 875 1.500 10000.000 0.000 1.000 15000.000 0.000 1.505
48 144.00 1200.01 334 886 1.500 10000.000 0.000 1.000 15000.000 0.000 1.505
49 147.00 1200.01 310 805 1.500 10000.000 0.000 1.000 15000.000 0.000 1.505
50 150.00 1200.01 339 779 1.500 10000.000 0.000 1.000 15000.000 0.000 1.505
51 153.00 1200.01 337 790 1.500 10000.000 0.000 1.000 15000.000 0.000 1.505
52 156.00 1200.01 327 779 1.500 10000.000 0.000 1.000 15000.000 0.000 1.505
53 159.00 1200.01 295 761 1.500 10000.000 0.000 1.000 15000.000 0.000 1.505
54 162.00 1200.01 301 798 1.500 10000.000 0.000 1.000 15000.000 0.000 1.505
55 165.00 1200.01 314 769 1.500 10000.000 0.000 1.000 15000.000 0.000 1.505
56 168.00 1200.01 281 892 1.500 10000.000 0.000 1.000 15000.000 0.000 1.505
57 171.00 1200.01 284 837 1.500 10000.000 0.000 1.000 15000.000 0.000 1.505
58 174.00 1200.01 324 948 1.500 10000.000 0.000 1.000 15000.000 0.000 1.505
59 177.00 1200.01 256 889 1.500 10000.000 0.000 1.000 15000.000 0.000 1.505
60 180.00 1200.01 298 850 1.500 10000.000 0.000 1.000 15000.000 0.000 1.505
61 183.00 1200.01 251 874 1.500 10000.000 0.000 1.000 15000.000 0.000 1.505
62 186.00 1200.01 300 857 1.500 10000.000 0.000 1.000 15000.000 0.000 1.505
63 189.00 1200.01 296 842 1.500 10000.000 0.000 1.000 15000.000 0.000 1.505
64 192.00 1200.01 308 904 1.500 10000.000 0.000 1.000 15000.000 0.000 1.505
65 195.00 1200.01 293 815 1.500 10000.000 0.000 1.000 15000.000 0.000 1.505
66 198.00 1200.01 301 867 1.500 10000.000 0.000 1.000 15000.000 0.000 1.505
67 201.00 1200.01 287 874 1.500 10000.000 0.000 1.000 15000.000 0.000 1.505
68 204.00 1200.01 291 942 1.500 10000.000 0.000 1.000 15000.000 0.000 1.505
69 207.00 1200.01 326 966 1.500 10000.000 0.000 1.000 15000.000 0.000 1.505
70 210.00 1200.01 313 908 1.500 10000.000 0.000 1.000 15000.000 0.000 1.505
71 213.00 1200.01 264 956 1.500 10000.000 0.000 1.000 15000.000 0.000 1.505
72 216.00 1200.01 263 898 1.500 10000.000 0.000 1.000 15000.000 0.000 1.505
73 219.00 1200.01 303 909 1.500 10000.000 0.000 1.000 15000.000 0.000 1.505
74 222.00 1200.01 304 908 1.500 10000.000 0.000 1.000 15000.000 0.000 1.505
75 225.00 1200.01 301 924 1.500 10000.000 0.000 1.000 15000.000 0.000 1.505
76 228.00 1200.01 324 905 1.500 10000.000 0.000 1.000 15000.000 0.000 1.505
77 231.00 1200.01 304 927 1.500 10000.000 0.000 1.000 15000.000 0.000 1.505
78 234.00 1200.01 323 871 1.500 10000.000 0.000 1.000 15000.000 0.000 1.505
79 237.00 1200.01 323 854 1.500 10000.000 0.000 1.000 15000.000 0.000 1.505
80 240.00 1200.01 322 887 1.500 10000.000 0.000 1.000 15000.000 0.000 1.505
81 243.00 1200.01 324 879 1.500 10000.000 0.000 1.000 15000.000 0.000 1.505
82 246.00 1200.01 283 875 1.500 10000.000 0.000 1.000 15000.000 0.000 1.505
83 249.00 1200.01 299 823 1.500 10000.000 0.000 1.000 15000.000 0.000 1.505
84 252.00 1200.01 293 866 1.500 10000.000 0.000 1.000 15000.000 0.000 1.505
85 255.00 1200.01 246 959 1.500 10000.000 0.000 1.000 15000.000 0.000 1.505
86 258.00 1200.01 276 947 1.500 10000.000 0.000 1.000 15000.000 0.000 1.505
87 261.00 1200.01 302 852 1.500 10000.000 0.000 1.000 15000.000 0.000 1.505
88 264.00 1200.01 280 869 1.500 10000.000 0.000 1.000 15000.000 0.000 1.505
89 267.00 1200.01 253 863 1.500 10000.000 0.000 1.000 15000.000 0.000 1.505
90 270.00 1200.01 282 799 1.500 10000.000 0.000 1.000 15000.000 0.000 1.505
91 273.00 1200.01 304 789 1.500 10000.000 0.000 1.000 15000.000 0.000 1.505
92 276.00 1200.01 303 760 1.500 10000.000 0.000 1.000 15000.000 0.000 1.505
93 279.00 1200.01 318 730 1.500 10000.000 0.000 1.000 15000.000 0.000 1.505
94 282.00 1200.01 274 777 1.500 10000.000 0.000 1.000 15000.000 0.000 1.505
95 285.00 1200.01 329 770 1.500 10000.000 0.000 1.000 15000.000 0.000 1.505
96 288.00 1200.01 332 868 1.500 10000.000 0.000 1.000 15000.000 0.000 1.505
97 291.00 1200.01 327 844 1.500 10000.000 0.000 1.000 15000.000 0.000 1.505
98 294.00 1200.01 313 975 1.500 10000.000 0.000 1.000 15000.000 0.000 1.505
99 297.00 1200.01 331 866 1.500 10000.000 0.000 1.000 15000.000 0.000 1.505
100 300.00 1200.01 341 888 1.500 10000.000 0.000 1.000 15000.000 0.000 1.505
101 303.00 1200.01 320 810 1.500 10000.000 0.000 1.000 15000.000 0.000 1.505
102 306.00 1200.01 359 742 1.500 10000.000 0.000 1.000 15000.000 0.000 1.505
103 309.00 1200.01 321 695 1.500 10000.000 0.000 1.000 15000.000 0.000 1.505
104 312.00 1200.01 367 695 1.500 10000.000 0.000 1.000 15000.000 0.000 1.505
105 315.00 1200.01 323 619 1.500 10000.000 0.000 1.000 15000.000 0.000 1.505
106 318.00 1200.01 327 561 1.500 10000.000 0.000 1.000 15000.000 0.000 1.505
107 321.00 1200.01 307 605 1.500 10000.000 0.000 1.000 15000.000 0.000 1.505
108 324.00 1200.01 333 671 1.500 10000.000 0.000 1.000 15000.000 0.000 1.505
109 327.00 1200.01 293 747 1.500 10000.000 0.000 1.000 15000.000 0.000 1.505
110 330.00 1200.01 324 787 1.500 10000.000 0.000 1.000 15000.000 0.000 1.505
111 333.00 1200.01 320 819 1.500 10000.000 0.000 1.000 15000.000 0.000 1.505
112 336.00 1200.01 304 936 1.500 10000.000 0.000 1.000 15000.000 0.000 1.505
113 339.00 1200.01 310 924 1.500 10000.000 0.000 1.000 15000.000 0.000 1.505
114 342.00 1200.01 336 943 1.500 10000.000 0.000 1.000 15000.000 0.000 1.505
115 345.00 1200.01 291 900 1.500 10000.000 0.000 1.000 15000.000 0.000 1.505
116 348.00 1200.01 342 862 1.500 10000.000 0.000 1.000 15000.000 0.000 1.505
117 351.00 1200.01 305 796 1.500 10000.000 0.000 1.000 15000.000 0.000 1.505
118 354.00 1200.01 320 773 1.500 10000.000 0.000 1.000 15000.000 0.000 1.505
119 357.00 1200.01 304 699 1.500 10000.000 0.000 1.000 15000.000 0.000 1.505
120 360.00 1200.01 320 766 1.500 10000.000 0.000 1.000 15000.000 0.000 1.505
121 363.00 1200.01 324 803 1.500 10000.000 0.000 1.000 15000.000 0.000 1.505
122 366.00 1200.01 260 833 1.500 10000.000 0.000 1.000 15000.000 0.000 1.505
123 369.00 1200.01 306 885 1.500 10000.000 0.000 1.000 15000.000 0.000 1.505
124 372.00 1200.01 296 895 1.500 10000.000 0.000 1.000 15000.000 0.000 1.505
125 375.00 1200.01 295 902 1.500 10000.000 0.000 1.000 15000.000 0.000 1.505
126 378.00 1200.01 266 917 1.500 10000.000 0.000 1.000 15000.000 0.000 1.505
127 381.00 1200.01 293 903 1.500 10000.000 0.000 1.000 15000.000 0.000 1.505
128 384.00 1200.01 272 862 1.500 10000.000 0.000 1.000 15000.000 0.000 1.505
129 387.00 1200.01 272 816 1.500 10000.000 0.000 1.000 15000.000 0.000 1.505
130 390.00 1200.01 264 858 1.500 10000.000 0.000 1.000 15000.000 0.000 1.505
131 393.00 1200.01 286 843 1.500 10000.000 0.000 1.000 15000.000 0.000 1.505
132 396.00 1200.01 314 890 1.500 10000.000 0.000 1.000 15000.000 0.000 1.505
133 399.00 1200.01 289 866 1.500 10000.000 0.000 1.000 15000.000 0.000 1.505
