# BinNR microsec tot-time (s)  O-Beam AUX Ampl_1(V) f_1(Hz) phase_1(deg) Ampl_2(V) f_2(Hz) phase_2(deg) chi(pos)
0 0.00 1200.03 82 286 1.500 10000.000 0.000 1.000 15000.000 0.000 0.901
1 3.00 1200.03 209 531 1.500 10000.000 0.000 1.000 15000.000 0.000 0.901
2 6.00 1200.03 210 563 1.500 10000.000 0.000 1.000 15000.000 0.000 0.901
3 9.00 1200.03 246 525 1.500 10000.000 0.000 1.000 15000.000 0.000 0.901
4 12.00 1200.03 268 555 1.500 10000.000 0.000 1.000 15000.000 0.000 0.901
5 15.00 1200.03 232 516 1.500 10000.000 0.000 1.000 15000.000 0.000 0.901
6 18.00 1200.03 273 498 1.500 10000.000 0.000 1.000 15000.000 0.000 0.901
7 21.00 1200.03 255 549 1.500 10000.000 0.000 1.000 15000.000 0.000 0.901
8 24.00 1200.03 273 573 1.500 10000.000 0.000 1.000 15000.000 0.000 0.901
9 27.00 1200.03 261 592 1.500 10000.000 0.000 1.000 15000.000 0.000 0.901
10 30.00 1200.03 236 597 1.500 10000.000 0.000 1.000 15000.000 0.000 0.901
11 33.00 1200.03 214 613 1.500 10000.000 0.000 1.000 15000.000 0.000 0.901
12 36.00 1200.03 223 683 1.500 10000.000 0.000 1.000 15000.000 0.000 0.901
13 39.00 1200.03 196 603 1.500 10000.000 0.000 1.000 15000.000 0.000 0.901
14 42.00 1200.03 183 667 1.500 10000.000 0.000 1.000 15000.000 0.000 0.901
15 45.00 1200.03 163 645 1.500 10000.000 0.000 1.000 15000.000 0.000 0.901
16 48.00 1200.03 146 615 1.500 10000.000 0.000 1.000 15000.000 0.000 0.901
17 51.00 1200.03 162 529 1.500 10000.000 0.000 1.000 15000.000 0.000 0.901
18 54.00 1200.03 157 505 1.500 10000.000 0.000 1.000 15000.000 0.000 0.901
19 57.00 1200.03 139 513 1.500 10000.000 0.000 1.000 15000.000 0.000 0.901
20 60.00 1200.03 155 457 1.500 10000.000 0.000 1.000 15000.000 0.000 0.901
21 63.00 1200.03 143 369 1.500 10000.000 0.000 1.000 15000.000 0.000 0.901
22 66.00 1200.03 132 312 1.500 10000.000 0.000 1.000 15000.000 0.000 0.901
23 69.00 1200.03 150 290 1.500 10000.000 0.000 1.000 15000.000 0.000 0.901
24 72.00 1200.03 178 300 1.500 10000.000 0.000 1.000 15000.000 0.000 0.901
25 75.00 1200.03 144 248 1.500 10000.000 0.000 1.000 15000.000 0.000 0.901
26 78.00 1200.03 166 288 1.500 10000.000 0.000 1.000 15000.000 0.000 0.901
27 81.00 1200.03 186 269 1.500 10000.000 0.000 1.000 15000.000 0.000 0.901
28 84.00 1200.03 186 295 1.500 10000.000 0.000 1.000 15000.000 0.000 0.901
29 87.00 1200.03 185 301 1.500 10000.000 0.000 1.000 15000.000 0.000 0.901
30 90.00 1200.03 205 301 1.500 10000.000 0.000 1.000 15000.000 0.000 0.901
31 93.00 1200.03 207 364 1.500 10000.000 0.000 1.000 15000.000 0.000 0.901
32 96.00 1200.03 198 448 1.500 10000.000 0.000 1.000 15000.000 0.000 0.901
33 99.00 1200.03 197 527 1.500 10000.000 0.000 1.000 15000.000 0.000 0.901
34 102.00 1200.03 194 618 1.500 10000.000 0.000 1.000 15000.000 0.000 0.901
35 105.00 1200.03 184 724 1.500 10000.000 0.000 1.000 15000.000 0.000 0.901
36 108.00 1200.03 171 784 1.500 10000.000 0.000 1.000 15000.000 0.000 0.901
37 111.00 1200.03 197 809 1.500 10000.000 0.000 1.000 15000.000 0.000 0.901
38 114.00 1200.03 205 811 1.500 10000.000 0.000 1.000 15000.000 0.000 0.901
39 117.00 1200.03 177 818 1.500 10000.000 0.000 1.000 15000.000 0.000 0.901
40 120.00 1200.03 196 812 1.500 10000.000 0.000 1.000 15000.000 0.000 0.901
41 123.00 1200.03 190 817 1.500 10000.000 0.000 1.000 15000.000 0.000 0.901
42 126.00 1200.03 176 827 1.500 10000.000 0.000 1.000 15000.000 0.000 0.901
43 129.00 1200.03 203 735 1.500 10000.000 0.000 1.000 15000.000 0.000 0.901
44 132.00 1200.03 198 659 1.500 10000.000 0.000 1.000 15000.000 0.000 0.901
45 135.00 1200.03 212 561 1.500 10000.000 0.000 1.000 15000.000 0.000 0.901
46 138.00 1200.03 203 520 1.500 10000.000 0.000 1.000 15000.000 0.000 0.901
47 141.00 1200.03 223 401 1.500 10000.000 0.000 1.000 15000.000 0.000 0.901
48 144.00 1200.03 241 341 1.500 10000.000 0.000 1.000 15000.000 0.000 0.901
49 147.00 1200.03 190 303 1.500 10000.000 0.000 1.000 15000.000 0.000 0.901
50 150.00 1200.03 212 279 1.500 10000.000 0.000 1.000 15000.000 0.000 0.901
51 153.00 1200.03 185 272 1.500 10000.000 0.000 1.000 15000.000 0.000 0.901
52 156.00 1200.03 191 260 1.500 10000.000 0.000 1.000 15000.000 0.000 0.901
53 159.00 1200.03 188 243 1.500 10000.000 0.000 1.000 15000.000 0.000 0.901
54 162.00 1200.03 157 274 1.500 10000.000 0.000 1.000 15000.000 0.000 0.901
55 165.00 1200.03 136 308 1.500 10000.000 0.000 1.000 15000.000 0.000 0.901
56 168.00 1200.03 126 331 1.500 10000.000 0.000 1.000 15000.000 0.000 0.901
57 171.00 1200.03 140 380 1.500 10000.000 0.000 1.000 15000.000 0.000 0.901
58 174.00 1200.03 119 456 1.500 10000.000 0.000 1.000 15000.000 0.000 0.901
59 177.00 1200.03 142 460 1.500 10000.000 0.000 1.000 15000.000 0.000 0.901
60 180.00 1200.03 139 506 1.500 10000.000 0.000 1.000 15000.000 0.000 0.901
61 183.00 1200.03 150 559 1.500 10000.000 0.000 1.000 15000.000 0.000 0.901
62 186.00 1200.03 139 610 1.500 10000.000 0.000 1.000 15000.000 0.000 0.901
63 189.00 1200.03 139 657 1.500 10000.000 0.000 1.000 15000.000 0.000 0.901
64 192.00 1200.03 159 617 1.500 10000.000 0.000 1.000 15000.000 0.000 0.901
65 195.00 1200.03 162 584 1.500 10000.000 0.000 1.000 15000.000 0.000 0.901
66 198.00 1200.03 155 611 1.500 10000.000 0.000 1.000 15000.000 0.000 0.901
67 201.00 1200.03 190 615 1.500 10000.000 0.000 1.000 15000.000 0.000 0.901
68 204.00 1200.03 223 574 1.500 10000.000 0.000 1.000 15000.000 0.000 0.901
69 207.00 1200.03 214 559 1.500 10000.000 0.000 1.000 15000.000 0.000 0.901
70 210.00 1200.03 284 602 1.500 10000.000 0.000 1.000 15000.000 0.000 0.901
71 213.00 1200.03 255 503 1.500 10000.000 0.000 1.000 15000.000 0.000 0.901
72 216.00 1200.03 277 562 1.500 10000.000 0.000 1.000 15000.000 0.000 0.901
73 219.00 1200.03 265 523 1.500 10000.000 0.000 1.000 15000.000 0.000 0.901
74 222.00 1200.03 245 527 1.500 10000.000 0.000 1.000 15000.000 0.000 0.901
75 225.00 1200.03 248 518 1.500 10000.000 0.000 1.000 15000.000 0.000 0.901
76 228.00 1200.03 256 570 1.500 10000.000 0.000 1.000 15000.000 0.000 0.901
77 231.00 1200.03 252 623 1.500 10000.000 0.000 1.000 15000.000 0.000 0.901
78 234.00 1200.03 199 607 1.500 10000.000 0.000 1.000 15000.000 0.000 0.901
79 237.00 1200.03 214 596 1.500 10000.000 0.000 1.000 15000.000 0.000 0.901
80 240.00 1200.03 205 672 1.500 10000.000 0.000 1.000 15000.000 0.000 0.901
81 243.00 1200.03 171 644 1.500 10000.000 0.000 1.000 15000.000 0.000 0.901
82 246.00 1200.03 157 669 1.500 10000.000 0.000 1.000 15000.000 0.000 0.901
83 249.00 1200.03 154 599 1.500 10000.000 0.000 1.000 15000.000 0.000 0.901
84 252.00 1200.03 144 556 1.500 10000.000 0.000 1.000 15000.000 0.000 0.901
85 255.00 1200.03 129 507 1.500 10000.000 0.000 1.000 15000.000 0.000 0.901
86 258.00 1200.03 139 469 1.500 10000.000 0.000 1.000 15000.000 0.000 0.901
87 261.00 1200.03 125 384 1.500 10000.000 0.000 1.000 15000.000 0.000 0.901
88 264.00 1200.03 151 361 1.500 10000.000 0.000 1.000 15000.000 0.000 0.901
89 267.00 1200.03 160 334 1.500 10000.000 0.000 1.000 15000.000 0.000 0.901
90 270.00 1200.03 148 317 1.500 10000.000 0.000 1.000 15000.000 0.000 0.901
91 273.00 1200.03 152 266 1.500 10000.000 0.000 1.000 15000.000 0.000 0.901
92 276.00 1200.03 163 265 1.500 10000.000 0.000 1.000 15000.000 0.000 0.901
93 279.00 1200.03 164 238 1.500 10000.000 0.000 1.000 15000.000 0.000 0.901
94 282.00 1200.03 201 280 1.500 10000.000 0.000 1.000 15000.000 0.000 0.901
95 285.00 1200.03 191 268 1.500 10000.000 0.000 1.000 15000.000 0.000 0.901
96 288.00 1200.03 188 309 1.500 10000.000 0.000 1.000 15000.000 0.000 0.901
97 291.00 1200.03 207 334 1.500 10000.000 0.000 1.000 15000.000 0.000 0.901
98 294.00 1200.03 241 427 1.500 10000.000 0.000 1.000 15000.000 0.000 0.901
99 297.00 1200.03 184 508 1.500 10000.000 0.000 1.000 15000.000 0.000 0.901
100 300.00 1200.03 189 595 1.500 10000.000 0.000 1.000 15000.000 0.000 0.901
101 303.00 1200.03 187 659 1.500 10000.000 0.000 1.000 15000.000 0.000 0.901
102 306.00 1200.03 182 712 1.500 10000.000 0.000 1.000 15000.000 0.000 0.901
103 309.00 1200.03 186 757 1.500 10000.000 0.000 1.000 15000.000 0.000 0.901
104 312.00 1200.03 202 878 1.500 10000.000 0.000 1.000 15000.000 0.000 0.901
105 315.00 1200.03 192 816 1.500 10000.000 0.000 1.000 15000.000 0.000 0.901
106 318.00 1200.03 203 865 1.500 10000.000 0.000 1.000 15000.000 0.000 0.901
107 321.00 1200.03 154 846 1.500 10000.000 0.000 1.000 15000.000 0.000 0.901
108 324.00 1200.03 195 789 1.500 10000.000 0.000 1.000 15000.000 0.000 0.901
109 327.00 1200.03 201 765 1.500 10000.000 0.000 1.000 15000.000 0.000 0.901
110 330.00 1200.03 232 765 1.500 10000.000 0.000 1.000 15000.000 0.000 0.901
111 333.00 1200.03 211 647 1.500 10000.000 0.000 1.000 15000.000 0.000 0.901
112 336.00 1200.03 235 573 1.500 10000.000 0.000 1.000 15000.000 0.000 0.901
113 339.00 1200.03 204 462 1.500 10000.000 0.000 1.000 15000.000 0.000 0.901
114 342.00 1200.03 202 388 1.500 10000.000 0.000 1.000 15000.000 0.000 0.901
115 345.00 1200.03 202 329 1.500 10000.000 0.000 1.000 15000.000 0.000 0.901
116 348.00 1200.03 198 290 1.500 10000.000 0.000 1.000 15000.000 0.000 0.901
117 351.00 1200.03 194 268 1.500 10000.000 0.000 1.000 15000.000 0.000 0.901
118 354.00 1200.03 191 295 1.500 10000.000 0.000 1.000 15000.000 0.000 0.901
119 357.00 1200.03 194 243 1.500 10000.000 0.000 1.000 15000.000 0.000 0.901
120 360.00 1200.03 160 274 1.500 10000.000 0.000 1.000 15000.000 0.000 0.901
121 363.00 1200.03 181 288 1.500 10000.000 0.000 1.000 15000.000 0.000 0.901
122 366.00 1200.03 134 307 1.500 10000.000 0.000 1.000 15000.000 0.000 0.901
123 369.00 1200.03 148 341 1.500 10000.000 0.000 1.000 15000.000 0.000 0.901
124 372.00 1200.03 146 373 1.500 10000.000 0.000 1.000 15000.000 0.000 0.901
125 375.00 1200.03 148 426 1.500 10000.000 0.000 1.000 15000.000 0.000 0.901
126 378.00 1200.03 144 479 1.500 10000.000 0.000 1.000 15000.000 0.000 0.901
127 381.00 1200.03 154 499 1.500 10000.000 0.000 1.000 15000.000 0.000 0.901
128 384.00 1200.03 121 555 1.500 10000.000 0.000 1.000 15000.000 0.000 0.901
129 387.00 1200.03 156 579 1.500 10000.000 0.000 1.000 15000.000 0.000 0.901
130 390.00 1200.03 125 544 1.500 10000.000 0.000 1.000 15000.000 0.000 0.901
131 393.00 1200.03 165 600 1.500 10000.000 0.000 1.000 15000.000 0.000 0.901
132 396.00 1200.03 182 611 1.500 10000.000 0.000 1.000 15000.000 0.000 0.901
133 399.00 1200.03 201 630 1.500 10000.000 0.000 1.000 15000.000 0.000 0.901
