# BinNR microsec tot-time (s)  O-Beam AUX Ampl(V) f(Hz) phase(deg) chi(pos)
0 0.00 1500.01 36 52 1.000 10000.000 0.000 0.659
1 3.00 1500.01 85 124 1.000 10000.000 0.000 0.659
2 6.00 1500.01 99 100 1.000 10000.000 0.000 0.659
3 9.00 1500.01 81 99 1.000 10000.000 0.000 0.659
4 12.00 1500.01 90 88 1.000 10000.000 0.000 0.659
5 15.00 1500.01 82 79 1.000 10000.000 0.000 0.659
6 18.00 1500.01 104 86 1.000 10000.000 0.000 0.659
7 21.00 1500.01 98 95 1.000 10000.000 0.000 0.659
8 24.00 1500.01 104 82 1.000 10000.000 0.000 0.659
9 27.00 1500.01 128 126 1.000 10000.000 0.000 0.659
10 30.00 1500.01 111 115 1.000 10000.000 0.000 0.659
11 33.00 1500.01 105 116 1.000 10000.000 0.000 0.659
12 36.00 1500.01 106 132 1.000 10000.000 0.000 0.659
13 39.00 1500.01 127 117 1.000 10000.000 0.000 0.659
14 42.00 1500.01 129 121 1.000 10000.000 0.000 0.659
15 45.00 1500.01 137 127 1.000 10000.000 0.000 0.659
16 48.00 1500.01 141 114 1.000 10000.000 0.000 0.659
17 51.00 1500.01 123 116 1.000 10000.000 0.000 0.659
18 54.00 1500.01 118 144 1.000 10000.000 0.000 0.659
19 57.00 1500.01 134 101 1.000 10000.000 0.000 0.659
20 60.00 1500.01 113 104 1.000 10000.000 0.000 0.659
21 63.00 1500.01 105 96 1.000 10000.000 0.000 0.659
22 66.00 1500.01 119 105 1.000 10000.000 0.000 0.659
23 69.00 1500.01 117 91 1.000 10000.000 0.000 0.659
24 72.00 1500.01 92 73 1.000 10000.000 0.000 0.659
25 75.00 1500.01 89 85 1.000 10000.000 0.000 0.659
26 78.00 1500.01 115 97 1.000 10000.000 0.000 0.659
27 81.00 1500.01 88 85 1.000 10000.000 0.000 0.659
28 84.00 1500.01 96 123 1.000 10000.000 0.000 0.659
29 87.00 1500.01 87 93 1.000 10000.000 0.000 0.659
30 90.00 1500.01 77 126 1.000 10000.000 0.000 0.659
31 93.00 1500.01 99 106 1.000 10000.000 0.000 0.659
32 96.00 1500.01 81 103 1.000 10000.000 0.000 0.659
33 99.00 1500.01 88 130 1.000 10000.000 0.000 0.659
34 102.00 1500.01 83 99 1.000 10000.000 0.000 0.659
35 105.00 1500.01 83 121 1.000 10000.000 0.000 0.659
36 108.00 1500.01 84 109 1.000 10000.000 0.000 0.659
37 111.00 1500.01 90 81 1.000 10000.000 0.000 0.659
38 114.00 1500.01 102 95 1.000 10000.000 0.000 0.659
39 117.00 1500.01 101 98 1.000 10000.000 0.000 0.659
40 120.00 1500.01 99 97 1.000 10000.000 0.000 0.659
41 123.00 1500.01 89 95 1.000 10000.000 0.000 0.659
42 126.00 1500.01 97 103 1.000 10000.000 0.000 0.659
43 129.00 1500.01 134 108 1.000 10000.000 0.000 0.659
44 132.00 1500.01 118 117 1.000 10000.000 0.000 0.659
45 135.00 1500.01 156 117 1.000 10000.000 0.000 0.659
46 138.00 1500.01 127 115 1.000 10000.000 0.000 0.659
47 141.00 1500.01 120 118 1.000 10000.000 0.000 0.659
48 144.00 1500.01 120 131 1.000 10000.000 0.000 0.659
49 147.00 1500.01 152 130 1.000 10000.000 0.000 0.659
50 150.00 1500.01 132 134 1.000 10000.000 0.000 0.659
51 153.00 1500.01 130 134 1.000 10000.000 0.000 0.659
52 156.00 1500.01 153 141 1.000 10000.000 0.000 0.659
53 159.00 1500.01 122 100 1.000 10000.000 0.000 0.659
54 162.00 1500.01 128 127 1.000 10000.000 0.000 0.659
55 165.00 1500.01 105 117 1.000 10000.000 0.000 0.659
56 168.00 1500.01 108 111 1.000 10000.000 0.000 0.659
57 171.00 1500.01 94 95 1.000 10000.000 0.000 0.659
58 174.00 1500.01 101 89 1.000 10000.000 0.000 0.659
59 177.00 1500.01 107 73 1.000 10000.000 0.000 0.659
60 180.00 1500.01 95 121 1.000 10000.000 0.000 0.659
61 183.00 1500.01 96 110 1.000 10000.000 0.000 0.659
62 186.00 1500.01 95 116 1.000 10000.000 0.000 0.659
63 189.00 1500.01 77 98 1.000 10000.000 0.000 0.659
64 192.00 1500.01 89 108 1.000 10000.000 0.000 0.659
65 195.00 1500.01 85 117 1.000 10000.000 0.000 0.659
66 198.00 1500.01 89 115 1.000 10000.000 0.000 0.659
67 201.00 1500.01 104 104 1.000 10000.000 0.000 0.659
68 204.00 1500.01 78 105 1.000 10000.000 0.000 0.659
69 207.00 1500.01 85 110 1.000 10000.000 0.000 0.659
70 210.00 1500.01 90 110 1.000 10000.000 0.000 0.659
71 213.00 1500.01 113 108 1.000 10000.000 0.000 0.659
72 216.00 1500.01 93 103 1.000 10000.000 0.000 0.659
73 219.00 1500.01 108 88 1.000 10000.000 0.000 0.659
74 222.00 1500.01 113 91 1.000 10000.000 0.000 0.659
75 225.00 1500.01 123 118 1.000 10000.000 0.000 0.659
76 228.00 1500.01 129 103 1.000 10000.000 0.000 0.659
77 231.00 1500.01 130 93 1.000 10000.000 0.000 0.659
78 234.00 1500.01 105 106 1.000 10000.000 0.000 0.659
79 237.00 1500.01 118 123 1.000 10000.000 0.000 0.659
80 240.00 1500.01 119 142 1.000 10000.000 0.000 0.659
81 243.00 1500.01 139 149 1.000 10000.000 0.000 0.659
82 246.00 1500.01 101 121 1.000 10000.000 0.000 0.659
83 249.00 1500.01 129 144 1.000 10000.000 0.000 0.659
84 252.00 1500.01 145 125 1.000 10000.000 0.000 0.659
85 255.00 1500.01 133 147 1.000 10000.000 0.000 0.659
86 258.00 1500.01 145 120 1.000 10000.000 0.000 0.659
87 261.00 1500.01 134 116 1.000 10000.000 0.000 0.659
88 264.00 1500.01 128 121 1.000 10000.000 0.000 0.659
89 267.00 1500.01 117 97 1.000 10000.000 0.000 0.659
90 270.00 1500.01 120 109 1.000 10000.000 0.000 0.659
91 273.00 1500.01 106 111 1.000 10000.000 0.000 0.659
92 276.00 1500.01 104 91 1.000 10000.000 0.000 0.659
93 279.00 1500.01 97 107 1.000 10000.000 0.000 0.659
94 282.00 1500.01 78 103 1.000 10000.000 0.000 0.659
95 285.00 1500.01 109 100 1.000 10000.000 0.000 0.659
96 288.00 1500.01 89 92 1.000 10000.000 0.000 0.659
97 291.00 1500.01 82 116 1.000 10000.000 0.000 0.659
98 294.00 1500.01 91 106 1.000 10000.000 0.000 0.659
99 297.00 1500.01 74 126 1.000 10000.000 0.000 0.659
100 300.00 1500.01 89 107 1.000 10000.000 0.000 0.659
101 303.00 1500.01 87 96 1.000 10000.000 0.000 0.659
102 306.00 1500.01 91 106 1.000 10000.000 0.000 0.659
103 309.00 1500.01 99 107 1.000 10000.000 0.000 0.659
104 312.00 1500.01 88 109 1.000 10000.000 0.000 0.659
105 315.00 1500.01 103 89 1.000 10000.000 0.000 0.659
106 318.00 1500.01 93 97 1.000 10000.000 0.000 0.659
107 321.00 1500.01 119 103 1.000 10000.000 0.000 0.659
108 324.00 1500.01 124 95 1.000 10000.000 0.000 0.659
109 327.00 1500.01 96 104 1.000 10000.000 0.000 0.659
110 330.00 1500.01 123 111 1.000 10000.000 0.000 0.659
111 333.00 1500.01 115 125 1.000 10000.000 0.000 0.659
112 336.00 1500.01 107 110 1.000 10000.000 0.000 0.659
113 339.00 1500.01 146 122 1.000 10000.000 0.000 0.659
114 342.00 1500.01 141 117 1.000 10000.000 0.000 0.659
115 345.00 1500.01 120 133 1.000 10000.000 0.000 0.659
116 348.00 1500.01 149 148 1.000 10000.000 0.000 0.659
117 351.00 1500.01 116 133 1.000 10000.000 0.000 0.659
118 354.00 1500.01 120 131 1.000 10000.000 0.000 0.659
119 357.00 1500.01 100 110 1.000 10000.000 0.000 0.659
120 360.00 1500.01 131 107 1.000 10000.000 0.000 0.659
121 363.00 1500.01 125 97 1.000 10000.000 0.000 0.659
122 366.00 1500.01 130 101 1.000 10000.000 0.000 0.659
123 369.00 1500.01 109 105 1.000 10000.000 0.000 0.659
124 372.00 1500.01 111 89 1.000 10000.000 0.000 0.659
125 375.00 1500.01 97 95 1.000 10000.000 0.000 0.659
126 378.00 1500.01 104 83 1.000 10000.000 0.000 0.659
127 381.00 1500.01 89 98 1.000 10000.000 0.000 0.659
128 384.00 1500.01 87 110 1.000 10000.000 0.000 0.659
129 387.00 1500.01 86 96 1.000 10000.000 0.000 0.659
130 390.00 1500.01 95 100 1.000 10000.000 0.000 0.659
131 393.00 1500.01 80 126 1.000 10000.000 0.000 0.659
132 396.00 1500.01 89 138 1.000 10000.000 0.000 0.659
133 399.00 1500.01 89 137 1.000 10000.000 0.000 0.659
134 402.00 1500.01 79 108 1.000 10000.000 0.000 0.659
