# BinNR microsec tot-time (s)  O-Beam AUX Ampl(V) f(Hz) phase(deg) chi(pos)
0 0.00 1500.01 70 270 1.000 10000.000 0.000 -1.011
1 3.00 1500.01 168 482 1.000 10000.000 0.000 -1.011
2 6.00 1500.01 175 456 1.000 10000.000 0.000 -1.011
3 9.00 1500.01 146 407 1.000 10000.000 0.000 -1.011
4 12.00 1500.01 115 405 1.000 10000.000 0.000 -1.011
5 15.00 1500.01 108 407 1.000 10000.000 0.000 -1.011
6 18.00 1500.01 137 373 1.000 10000.000 0.000 -1.011
7 21.00 1500.01 111 326 1.000 10000.000 0.000 -1.011
8 24.00 1500.01 127 290 1.000 10000.000 0.000 -1.011
9 27.00 1500.01 94 285 1.000 10000.000 0.000 -1.011
10 30.00 1500.01 90 291 1.000 10000.000 0.000 -1.011
11 33.00 1500.01 110 278 1.000 10000.000 0.000 -1.011
12 36.00 1500.01 97 261 1.000 10000.000 0.000 -1.011
13 39.00 1500.01 108 249 1.000 10000.000 0.000 -1.011
14 42.00 1500.01 107 259 1.000 10000.000 0.000 -1.011
15 45.00 1500.01 101 261 1.000 10000.000 0.000 -1.011
16 48.00 1500.01 103 222 1.000 10000.000 0.000 -1.011
17 51.00 1500.01 101 248 1.000 10000.000 0.000 -1.011
18 54.00 1500.01 105 271 1.000 10000.000 0.000 -1.011
19 57.00 1500.01 77 253 1.000 10000.000 0.000 -1.011
20 60.00 1500.01 121 286 1.000 10000.000 0.000 -1.011
21 63.00 1500.01 104 332 1.000 10000.000 0.000 -1.011
22 66.00 1500.01 134 310 1.000 10000.000 0.000 -1.011
23 69.00 1500.01 125 304 1.000 10000.000 0.000 -1.011
24 72.00 1500.01 130 358 1.000 10000.000 0.000 -1.011
25 75.00 1500.01 135 406 1.000 10000.000 0.000 -1.011
26 78.00 1500.01 137 456 1.000 10000.000 0.000 -1.011
27 81.00 1500.01 154 459 1.000 10000.000 0.000 -1.011
28 84.00 1500.01 144 449 1.000 10000.000 0.000 -1.011
29 87.00 1500.01 135 482 1.000 10000.000 0.000 -1.011
30 90.00 1500.01 180 517 1.000 10000.000 0.000 -1.011
31 93.00 1500.01 153 520 1.000 10000.000 0.000 -1.011
32 96.00 1500.01 153 538 1.000 10000.000 0.000 -1.011
33 99.00 1500.01 174 546 1.000 10000.000 0.000 -1.011
34 102.00 1500.01 123 528 1.000 10000.000 0.000 -1.011
35 105.00 1500.01 160 484 1.000 10000.000 0.000 -1.011
36 108.00 1500.01 136 518 1.000 10000.000 0.000 -1.011
37 111.00 1500.01 153 459 1.000 10000.000 0.000 -1.011
38 114.00 1500.01 121 433 1.000 10000.000 0.000 -1.011
39 117.00 1500.01 131 439 1.000 10000.000 0.000 -1.011
40 120.00 1500.01 129 391 1.000 10000.000 0.000 -1.011
41 123.00 1500.01 107 374 1.000 10000.000 0.000 -1.011
42 126.00 1500.01 112 349 1.000 10000.000 0.000 -1.011
43 129.00 1500.01 117 317 1.000 10000.000 0.000 -1.011
44 132.00 1500.01 103 289 1.000 10000.000 0.000 -1.011
45 135.00 1500.01 101 252 1.000 10000.000 0.000 -1.011
46 138.00 1500.01 96 263 1.000 10000.000 0.000 -1.011
47 141.00 1500.01 116 238 1.000 10000.000 0.000 -1.011
48 144.00 1500.01 84 232 1.000 10000.000 0.000 -1.011
49 147.00 1500.01 97 254 1.000 10000.000 0.000 -1.011
50 150.00 1500.01 108 221 1.000 10000.000 0.000 -1.011
51 153.00 1500.01 93 231 1.000 10000.000 0.000 -1.011
52 156.00 1500.01 105 284 1.000 10000.000 0.000 -1.011
53 159.00 1500.01 85 284 1.000 10000.000 0.000 -1.011
54 162.00 1500.01 125 314 1.000 10000.000 0.000 -1.011
55 165.00 1500.01 99 298 1.000 10000.000 0.000 -1.011
56 168.00 1500.01 118 320 1.000 10000.000 0.000 -1.011
57 171.00 1500.01 149 339 1.000 10000.000 0.000 -1.011
58 174.00 1500.01 138 415 1.000 10000.000 0.000 -1.011
59 177.00 1500.01 137 419 1.000 10000.000 0.000 -1.011
60 180.00 1500.01 143 447 1.000 10000.000 0.000 -1.011
61 183.00 1500.01 143 465 1.000 10000.000 0.000 -1.011
62 186.00 1500.01 158 486 1.000 10000.000 0.000 -1.011
63 189.00 1500.01 139 525 1.000 10000.000 0.000 -1.011
64 192.00 1500.01 172 532 1.000 10000.000 0.000 -1.011
65 195.00 1500.01 167 504 1.000 10000.000 0.000 -1.011
66 198.00 1500.01 162 561 1.000 10000.000 0.000 -1.011
67 201.00 1500.01 164 556 1.000 10000.000 0.000 -1.011
68 204.00 1500.01 180 505 1.000 10000.000 0.000 -1.011
69 207.00 1500.01 148 488 1.000 10000.000 0.000 -1.011
70 210.00 1500.01 137 493 1.000 10000.000 0.000 -1.011
71 213.00 1500.01 122 447 1.000 10000.000 0.000 -1.011
72 216.00 1500.01 145 406 1.000 10000.000 0.000 -1.011
73 219.00 1500.01 113 393 1.000 10000.000 0.000 -1.011
74 222.00 1500.01 106 382 1.000 10000.000 0.000 -1.011
75 225.00 1500.01 109 317 1.000 10000.000 0.000 -1.011
76 228.00 1500.01 129 353 1.000 10000.000 0.000 -1.011
77 231.00 1500.01 115 297 1.000 10000.000 0.000 -1.011
78 234.00 1500.01 116 294 1.000 10000.000 0.000 -1.011
79 237.00 1500.01 101 255 1.000 10000.000 0.000 -1.011
80 240.00 1500.01 112 254 1.000 10000.000 0.000 -1.011
81 243.00 1500.01 111 237 1.000 10000.000 0.000 -1.011
82 246.00 1500.01 97 228 1.000 10000.000 0.000 -1.011
83 249.00 1500.01 111 213 1.000 10000.000 0.000 -1.011
84 252.00 1500.01 93 282 1.000 10000.000 0.000 -1.011
85 255.00 1500.01 98 235 1.000 10000.000 0.000 -1.011
86 258.00 1500.01 120 244 1.000 10000.000 0.000 -1.011
87 261.00 1500.01 109 277 1.000 10000.000 0.000 -1.011
88 264.00 1500.01 128 325 1.000 10000.000 0.000 -1.011
89 267.00 1500.01 114 306 1.000 10000.000 0.000 -1.011
90 270.00 1500.01 129 354 1.000 10000.000 0.000 -1.011
91 273.00 1500.01 129 364 1.000 10000.000 0.000 -1.011
92 276.00 1500.01 151 419 1.000 10000.000 0.000 -1.011
93 279.00 1500.01 138 446 1.000 10000.000 0.000 -1.011
94 282.00 1500.01 152 462 1.000 10000.000 0.000 -1.011
95 285.00 1500.01 160 494 1.000 10000.000 0.000 -1.011
96 288.00 1500.01 162 528 1.000 10000.000 0.000 -1.011
97 291.00 1500.01 154 525 1.000 10000.000 0.000 -1.011
98 294.00 1500.01 164 551 1.000 10000.000 0.000 -1.011
99 297.00 1500.01 137 514 1.000 10000.000 0.000 -1.011
100 300.00 1500.01 153 544 1.000 10000.000 0.000 -1.011
101 303.00 1500.01 159 531 1.000 10000.000 0.000 -1.011
102 306.00 1500.01 131 473 1.000 10000.000 0.000 -1.011
103 309.00 1500.01 137 473 1.000 10000.000 0.000 -1.011
104 312.00 1500.01 136 438 1.000 10000.000 0.000 -1.011
105 315.00 1500.01 117 440 1.000 10000.000 0.000 -1.011
106 318.00 1500.01 120 363 1.000 10000.000 0.000 -1.011
107 321.00 1500.01 110 381 1.000 10000.000 0.000 -1.011
108 324.00 1500.01 150 374 1.000 10000.000 0.000 -1.011
109 327.00 1500.01 109 332 1.000 10000.000 0.000 -1.011
110 330.00 1500.01 99 300 1.000 10000.000 0.000 -1.011
111 333.00 1500.01 103 299 1.000 10000.000 0.000 -1.011
112 336.00 1500.01 85 236 1.000 10000.000 0.000 -1.011
113 339.00 1500.01 108 246 1.000 10000.000 0.000 -1.011
114 342.00 1500.01 127 255 1.000 10000.000 0.000 -1.011
115 345.00 1500.01 100 214 1.000 10000.000 0.000 -1.011
116 348.00 1500.01 104 230 1.000 10000.000 0.000 -1.011
117 351.00 1500.01 105 253 1.000 10000.000 0.000 -1.011
118 354.00 1500.01 99 261 1.000 10000.000 0.000 -1.011
119 357.00 1500.01 118 294 1.000 10000.000 0.000 -1.011
120 360.00 1500.01 100 293 1.000 10000.000 0.000 -1.011
121 363.00 1500.01 110 294 1.000 10000.000 0.000 -1.011
122 366.00 1500.01 126 325 1.000 10000.000 0.000 -1.011
123 369.00 1500.01 116 337 1.000 10000.000 0.000 -1.011
124 372.00 1500.01 132 371 1.000 10000.000 0.000 -1.011
125 375.00 1500.01 131 396 1.000 10000.000 0.000 -1.011
126 378.00 1500.01 141 439 1.000 10000.000 0.000 -1.011
127 381.00 1500.01 143 452 1.000 10000.000 0.000 -1.011
128 384.00 1500.01 139 515 1.000 10000.000 0.000 -1.011
129 387.00 1500.01 143 495 1.000 10000.000 0.000 -1.011
130 390.00 1500.01 179 507 1.000 10000.000 0.000 -1.011
131 393.00 1500.01 149 514 1.000 10000.000 0.000 -1.011
132 396.00 1500.01 160 548 1.000 10000.000 0.000 -1.011
133 399.00 1500.01 139 484 1.000 10000.000 0.000 -1.011
134 402.00 1500.01 147 552 1.000 10000.000 0.000 -1.011
