# BinNR microsec tot-time (s)  O-Beam AUX Ampl(V) f(Hz) phase(deg) chi(pos)
0 0.00 1500.00 155 500 1.000 10000.000 0.000 -0.681
1 3.00 1500.00 302 979 1.000 10000.000 0.000 -0.681
2 6.00 1500.00 306 1053 1.000 10000.000 0.000 -0.681
3 9.00 1500.00 316 913 1.000 10000.000 0.000 -0.681
4 12.00 1500.00 304 907 1.000 10000.000 0.000 -0.681
5 15.00 1500.00 288 928 1.000 10000.000 0.000 -0.681
6 18.00 1500.00 268 880 1.000 10000.000 0.000 -0.681
7 21.00 1500.00 306 875 1.000 10000.000 0.000 -0.681
8 24.00 1500.00 311 869 1.000 10000.000 0.000 -0.681
9 27.00 1500.00 225 837 1.000 10000.000 0.000 -0.681
10 30.00 1500.00 229 745 1.000 10000.000 0.000 -0.681
11 33.00 1500.00 243 778 1.000 10000.000 0.000 -0.681
12 36.00 1500.00 215 790 1.000 10000.000 0.000 -0.681
13 39.00 1500.00 226 754 1.000 10000.000 0.000 -0.681
14 42.00 1500.00 230 744 1.000 10000.000 0.000 -0.681
15 45.00 1500.00 235 758 1.000 10000.000 0.000 -0.681
16 48.00 1500.00 222 765 1.000 10000.000 0.000 -0.681
17 51.00 1500.00 235 785 1.000 10000.000 0.000 -0.681
18 54.00 1500.00 238 800 1.000 10000.000 0.000 -0.681
19 57.00 1500.00 242 781 1.000 10000.000 0.000 -0.681
20 60.00 1500.00 255 752 1.000 10000.000 0.000 -0.681
21 63.00 1500.00 250 838 1.000 10000.000 0.000 -0.681
22 66.00 1500.00 279 804 1.000 10000.000 0.000 -0.681
23 69.00 1500.00 284 890 1.000 10000.000 0.000 -0.681
24 72.00 1500.00 286 903 1.000 10000.000 0.000 -0.681
25 75.00 1500.00 292 919 1.000 10000.000 0.000 -0.681
26 78.00 1500.00 338 948 1.000 10000.000 0.000 -0.681
27 81.00 1500.00 317 950 1.000 10000.000 0.000 -0.681
28 84.00 1500.00 342 1025 1.000 10000.000 0.000 -0.681
29 87.00 1500.00 305 982 1.000 10000.000 0.000 -0.681
30 90.00 1500.00 333 1005 1.000 10000.000 0.000 -0.681
31 93.00 1500.00 313 978 1.000 10000.000 0.000 -0.681
32 96.00 1500.00 342 990 1.000 10000.000 0.000 -0.681
33 99.00 1500.00 347 1000 1.000 10000.000 0.000 -0.681
34 102.00 1500.00 340 945 1.000 10000.000 0.000 -0.681
35 105.00 1500.00 296 988 1.000 10000.000 0.000 -0.681
36 108.00 1500.00 318 945 1.000 10000.000 0.000 -0.681
37 111.00 1500.00 324 954 1.000 10000.000 0.000 -0.681
38 114.00 1500.00 298 961 1.000 10000.000 0.000 -0.681
39 117.00 1500.00 253 915 1.000 10000.000 0.000 -0.681
40 120.00 1500.00 284 939 1.000 10000.000 0.000 -0.681
41 123.00 1500.00 249 875 1.000 10000.000 0.000 -0.681
42 126.00 1500.00 276 808 1.000 10000.000 0.000 -0.681
43 129.00 1500.00 266 818 1.000 10000.000 0.000 -0.681
44 132.00 1500.00 261 797 1.000 10000.000 0.000 -0.681
45 135.00 1500.00 243 774 1.000 10000.000 0.000 -0.681
46 138.00 1500.00 236 750 1.000 10000.000 0.000 -0.681
47 141.00 1500.00 223 728 1.000 10000.000 0.000 -0.681
48 144.00 1500.00 225 739 1.000 10000.000 0.000 -0.681
49 147.00 1500.00 221 726 1.000 10000.000 0.000 -0.681
50 150.00 1500.00 232 677 1.000 10000.000 0.000 -0.681
51 153.00 1500.00 232 729 1.000 10000.000 0.000 -0.681
52 156.00 1500.00 248 688 1.000 10000.000 0.000 -0.681
53 159.00 1500.00 247 780 1.000 10000.000 0.000 -0.681
54 162.00 1500.00 248 802 1.000 10000.000 0.000 -0.681
55 165.00 1500.00 235 844 1.000 10000.000 0.000 -0.681
56 168.00 1500.00 299 857 1.000 10000.000 0.000 -0.681
57 171.00 1500.00 290 824 1.000 10000.000 0.000 -0.681
58 174.00 1500.00 292 883 1.000 10000.000 0.000 -0.681
59 177.00 1500.00 322 917 1.000 10000.000 0.000 -0.681
60 180.00 1500.00 307 959 1.000 10000.000 0.000 -0.681
61 183.00 1500.00 295 1000 1.000 10000.000 0.000 -0.681
62 186.00 1500.00 329 1021 1.000 10000.000 0.000 -0.681
63 189.00 1500.00 310 945 1.000 10000.000 0.000 -0.681
64 192.00 1500.00 344 1032 1.000 10000.000 0.000 -0.681
65 195.00 1500.00 310 1010 1.000 10000.000 0.000 -0.681
66 198.00 1500.00 351 985 1.000 10000.000 0.000 -0.681
67 201.00 1500.00 352 980 1.000 10000.000 0.000 -0.681
68 204.00 1500.00 294 988 1.000 10000.000 0.000 -0.681
69 207.00 1500.00 311 1003 1.000 10000.000 0.000 -0.681
70 210.00 1500.00 318 960 1.000 10000.000 0.000 -0.681
71 213.00 1500.00 299 981 1.000 10000.000 0.000 -0.681
72 216.00 1500.00 274 914 1.000 10000.000 0.000 -0.681
73 219.00 1500.00 265 901 1.000 10000.000 0.000 -0.681
74 222.00 1500.00 249 876 1.000 10000.000 0.000 -0.681
75 225.00 1500.00 236 927 1.000 10000.000 0.000 -0.681
76 228.00 1500.00 234 913 1.000 10000.000 0.000 -0.681
77 231.00 1500.00 264 832 1.000 10000.000 0.000 -0.681
78 234.00 1500.00 272 788 1.000 10000.000 0.000 -0.681
79 237.00 1500.00 239 724 1.000 10000.000 0.000 -0.681
80 240.00 1500.00 257 752 1.000 10000.000 0.000 -0.681
81 243.00 1500.00 245 716 1.000 10000.000 0.000 -0.681
82 246.00 1500.00 240 741 1.000 10000.000 0.000 -0.681
83 249.00 1500.00 240 752 1.000 10000.000 0.000 -0.681
84 252.00 1500.00 268 785 1.000 10000.000 0.000 -0.681
85 255.00 1500.00 267 726 1.000 10000.000 0.000 -0.681
86 258.00 1500.00 265 766 1.000 10000.000 0.000 -0.681
87 261.00 1500.00 243 787 1.000 10000.000 0.000 -0.681
88 264.00 1500.00 250 860 1.000 10000.000 0.000 -0.681
89 267.00 1500.00 280 846 1.000 10000.000 0.000 -0.681
90 270.00 1500.00 315 908 1.000 10000.000 0.000 -0.681
91 273.00 1500.00 271 868 1.000 10000.000 0.000 -0.681
92 276.00 1500.00 326 893 1.000 10000.000 0.000 -0.681
93 279.00 1500.00 294 947 1.000 10000.000 0.000 -0.681
94 282.00 1500.00 302 1001 1.000 10000.000 0.000 -0.681
95 285.00 1500.00 339 1049 1.000 10000.000 0.000 -0.681
96 288.00 1500.00 317 1052 1.000 10000.000 0.000 -0.681
97 291.00 1500.00 325 1001 1.000 10000.000 0.000 -0.681
98 294.00 1500.00 353 1037 1.000 10000.000 0.000 -0.681
99 297.00 1500.00 327 1026 1.000 10000.000 0.000 -0.681
100 300.00 1500.00 338 993 1.000 10000.000 0.000 -0.681
101 303.00 1500.00 308 1053 1.000 10000.000 0.000 -0.681
102 306.00 1500.00 330 982 1.000 10000.000 0.000 -0.681
103 309.00 1500.00 327 995 1.000 10000.000 0.000 -0.681
104 312.00 1500.00 300 934 1.000 10000.000 0.000 -0.681
105 315.00 1500.00 294 942 1.000 10000.000 0.000 -0.681
106 318.00 1500.00 290 908 1.000 10000.000 0.000 -0.681
107 321.00 1500.00 266 908 1.000 10000.000 0.000 -0.681
108 324.00 1500.00 266 916 1.000 10000.000 0.000 -0.681
109 327.00 1500.00 258 856 1.000 10000.000 0.000 -0.681
110 330.00 1500.00 259 805 1.000 10000.000 0.000 -0.681
111 333.00 1500.00 269 763 1.000 10000.000 0.000 -0.681
112 336.00 1500.00 256 742 1.000 10000.000 0.000 -0.681
113 339.00 1500.00 248 698 1.000 10000.000 0.000 -0.681
114 342.00 1500.00 235 739 1.000 10000.000 0.000 -0.681
115 345.00 1500.00 238 725 1.000 10000.000 0.000 -0.681
116 348.00 1500.00 246 731 1.000 10000.000 0.000 -0.681
117 351.00 1500.00 224 755 1.000 10000.000 0.000 -0.681
118 354.00 1500.00 248 738 1.000 10000.000 0.000 -0.681
119 357.00 1500.00 242 737 1.000 10000.000 0.000 -0.681
120 360.00 1500.00 250 804 1.000 10000.000 0.000 -0.681
121 363.00 1500.00 261 803 1.000 10000.000 0.000 -0.681
122 366.00 1500.00 258 827 1.000 10000.000 0.000 -0.681
123 369.00 1500.00 280 877 1.000 10000.000 0.000 -0.681
124 372.00 1500.00 253 887 1.000 10000.000 0.000 -0.681
125 375.00 1500.00 304 921 1.000 10000.000 0.000 -0.681
126 378.00 1500.00 326 970 1.000 10000.000 0.000 -0.681
127 381.00 1500.00 278 881 1.000 10000.000 0.000 -0.681
128 384.00 1500.00 313 1033 1.000 10000.000 0.000 -0.681
129 387.00 1500.00 315 965 1.000 10000.000 0.000 -0.681
130 390.00 1500.00 315 1026 1.000 10000.000 0.000 -0.681
131 393.00 1500.00 352 1042 1.000 10000.000 0.000 -0.681
132 396.00 1500.00 322 1009 1.000 10000.000 0.000 -0.681
133 399.00 1500.00 320 1039 1.000 10000.000 0.000 -0.681
134 402.00 1500.00 334 1062 1.000 10000.000 0.000 -0.681
