# BinNR microsec tot-time (s)  O-Beam H-beam AUX Ampl(V) f(Hz) phase(deg) chi(pos)
0 0.00 900.00 502 350 3 0.000 5.373 2000.000 -1.362
1 25.00 900.00 542 430 2 0.000 5.373 2000.000 -1.362
2 50.00 900.00 470 503 3 0.000 5.373 2000.000 -1.362
3 75.00 900.00 504 698 2 0.000 5.373 2000.000 -1.362
4 100.00 900.00 513 715 1 0.000 5.373 2000.000 -1.362
5 125.00 900.00 455 596 0 0.000 5.373 2000.000 -1.362
6 150.00 900.00 347 584 2 0.000 5.373 2000.000 -1.362
7 175.00 900.00 220 531 3 0.000 5.373 2000.000 -1.362
8 200.00 900.00 122 548 4 0.000 5.373 2000.000 -1.362
9 225.00 900.00 137 600 1 0.000 5.373 2000.000 -1.362
10 250.00 900.00 210 656 1 0.000 5.373 2000.000 -1.362
11 275.00 900.00 259 698 2 0.000 5.373 2000.000 -1.362
12 300.00 900.00 298 657 0 0.000 5.373 2000.000 -1.362
13 325.00 900.00 301 555 1 0.000 5.373 2000.000 -1.362
14 350.00 900.00 215 413 4 0.000 5.373 2000.000 -1.362
15 375.00 900.00 156 325 1 0.000 5.373 2000.000 -1.362
16 400.00 900.00 140 316 5 0.000 5.373 2000.000 -1.362
17 425.00 900.00 188 341 0 0.000 5.373 2000.000 -1.362
18 450.00 900.00 347 326 0 0.000 5.373 2000.000 -1.362
19 475.00 900.00 496 316 2 0.000 5.373 2000.000 -1.362
20 500.00 900.00 500 286 2 0.000 5.373 2000.000 -1.362
21 525.00 900.00 498 411 3 0.000 5.373 2000.000 -1.362
22 550.00 900.00 505 531 0 0.000 5.373 2000.000 -1.362
23 575.00 900.00 462 694 2 0.000 5.373 2000.000 -1.362
24 600.00 900.00 470 740 3 0.000 5.373 2000.000 -1.362
25 625.00 900.00 431 653 1 0.000 5.373 2000.000 -1.362
26 650.00 900.00 388 610 1 0.000 5.373 2000.000 -1.362
27 675.00 900.00 210 546 3 0.000 5.373 2000.000 -1.362
28 700.00 900.00 141 553 2 0.000 5.373 2000.000 -1.362
29 725.00 900.00 143 636 4 0.000 5.373 2000.000 -1.362
30 750.00 900.00 210 673 2 0.000 5.373 2000.000 -1.362
31 775.00 900.00 261 682 1 0.000 5.373 2000.000 -1.362
32 800.00 900.00 288 682 3 0.000 5.373 2000.000 -1.362
33 825.00 900.00 254 519 1 0.000 5.373 2000.000 -1.362
34 850.00 900.00 202 399 3 0.000 5.373 2000.000 -1.362
35 875.00 900.00 140 332 3 0.000 5.373 2000.000 -1.362
36 900.00 900.00 113 327 4 0.000 5.373 2000.000 -1.362
37 925.00 900.00 211 307 2 0.000 5.373 2000.000 -1.362
38 950.00 900.00 329 308 1 0.000 5.373 2000.000 -1.362
39 975.00 900.00 451 346 1 0.000 5.373 2000.000 -1.362
