# BinNR microsec tot-time (s)  O-Beam H-beam AUX Ampl(V) f(Hz) phase(deg) chi(pos)
0 0.00 900.00 402 461 4 0.000 5.373 2000.000 -1.088
1 25.00 900.00 443 543 2 0.000 5.373 2000.000 -1.088
2 50.00 900.00 503 688 1 0.000 5.373 2000.000 -1.088
3 75.00 900.00 419 684 3 0.000 5.373 2000.000 -1.088
4 100.00 900.00 433 612 6 0.000 5.373 2000.000 -1.088
5 125.00 900.00 313 537 3 0.000 5.373 2000.000 -1.088
6 150.00 900.00 202 419 0 0.000 5.373 2000.000 -1.088
7 175.00 900.00 132 396 2 0.000 5.373 2000.000 -1.088
8 200.00 900.00 157 397 1 0.000 5.373 2000.000 -1.088
9 225.00 900.00 246 426 3 0.000 5.373 2000.000 -1.088
10 250.00 900.00 329 521 3 0.000 5.373 2000.000 -1.088
11 275.00 900.00 415 676 3 0.000 5.373 2000.000 -1.088
12 300.00 900.00 422 753 3 0.000 5.373 2000.000 -1.088
13 325.00 900.00 387 666 2 0.000 5.373 2000.000 -1.088
14 350.00 900.00 345 566 3 0.000 5.373 2000.000 -1.088
15 375.00 900.00 215 457 2 0.000 5.373 2000.000 -1.088
16 400.00 900.00 147 379 0 0.000 5.373 2000.000 -1.088
17 425.00 900.00 145 345 1 0.000 5.373 2000.000 -1.088
18 450.00 900.00 199 346 4 0.000 5.373 2000.000 -1.088
19 475.00 900.00 321 355 4 0.000 5.373 2000.000 -1.088
20 500.00 900.00 394 469 0 0.000 5.373 2000.000 -1.088
21 525.00 900.00 445 548 2 0.000 5.373 2000.000 -1.088
22 550.00 900.00 488 654 0 0.000 5.373 2000.000 -1.088
23 575.00 900.00 449 722 2 0.000 5.373 2000.000 -1.088
24 600.00 900.00 399 652 2 0.000 5.373 2000.000 -1.088
25 625.00 900.00 324 525 2 0.000 5.373 2000.000 -1.088
26 650.00 900.00 236 443 3 0.000 5.373 2000.000 -1.088
27 675.00 900.00 103 410 3 0.000 5.373 2000.000 -1.088
28 700.00 900.00 159 415 3 0.000 5.373 2000.000 -1.088
29 725.00 900.00 234 420 3 0.000 5.373 2000.000 -1.088
30 750.00 900.00 337 559 6 0.000 5.373 2000.000 -1.088
31 775.00 900.00 389 635 1 0.000 5.373 2000.000 -1.088
32 800.00 900.00 472 712 0 0.000 5.373 2000.000 -1.088
33 825.00 900.00 385 641 3 0.000 5.373 2000.000 -1.088
34 850.00 900.00 358 536 4 0.000 5.373 2000.000 -1.088
35 875.00 900.00 240 467 2 0.000 5.373 2000.000 -1.088
36 900.00 900.00 135 393 2 0.000 5.373 2000.000 -1.088
37 925.00 900.00 125 323 5 0.000 5.373 2000.000 -1.088
38 950.00 900.00 211 342 2 0.000 5.373 2000.000 -1.088
39 975.00 900.00 298 360 3 0.000 5.373 2000.000 -1.088
