# BinNR microsec tot-time (s)  O-Beam H-beam AUX Ampl(V) f(Hz) phase(deg) chi(pos)
0 0.00 900.00 415 410 2 0.000 3.343 2000.000 1.362
1 25.00 900.00 469 484 2 0.000 3.343 2000.000 1.362
2 50.00 900.00 480 674 1 0.000 3.343 2000.000 1.362
3 75.00 900.00 502 694 3 0.000 3.343 2000.000 1.362
4 100.00 900.00 449 647 1 0.000 3.343 2000.000 1.362
5 125.00 900.00 354 499 1 0.000 3.343 2000.000 1.362
6 150.00 900.00 219 405 1 0.000 3.343 2000.000 1.362
7 175.00 900.00 111 408 2 0.000 3.343 2000.000 1.362
8 200.00 900.00 135 387 3 0.000 3.343 2000.000 1.362
9 225.00 900.00 227 406 3 0.000 3.343 2000.000 1.362
10 250.00 900.00 331 521 1 0.000 3.343 2000.000 1.362
11 275.00 900.00 436 625 3 0.000 3.343 2000.000 1.362
12 300.00 900.00 436 697 2 0.000 3.343 2000.000 1.362
13 325.00 900.00 433 634 1 0.000 3.343 2000.000 1.362
14 350.00 900.00 335 565 1 0.000 3.343 2000.000 1.362
15 375.00 900.00 278 427 2 0.000 3.343 2000.000 1.362
16 400.00 900.00 150 372 4 0.000 3.343 2000.000 1.362
17 425.00 900.00 125 349 3 0.000 3.343 2000.000 1.362
18 450.00 900.00 168 310 1 0.000 3.343 2000.000 1.362
19 475.00 900.00 295 385 4 0.000 3.343 2000.000 1.362
20 500.00 900.00 409 430 0 0.000 3.343 2000.000 1.362
21 525.00 900.00 468 548 1 0.000 3.343 2000.000 1.362
22 550.00 900.00 506 693 2 0.000 3.343 2000.000 1.362
23 575.00 900.00 457 695 0 0.000 3.343 2000.000 1.362
24 600.00 900.00 424 629 2 0.000 3.343 2000.000 1.362
25 625.00 900.00 354 522 2 0.000 3.343 2000.000 1.362
26 650.00 900.00 227 398 2 0.000 3.343 2000.000 1.362
27 675.00 900.00 140 385 4 0.000 3.343 2000.000 1.362
28 700.00 900.00 146 387 1 0.000 3.343 2000.000 1.362
29 725.00 900.00 232 434 0 0.000 3.343 2000.000 1.362
30 750.00 900.00 329 532 3 0.000 3.343 2000.000 1.362
31 775.00 900.00 397 614 3 0.000 3.343 2000.000 1.362
32 800.00 900.00 423 666 0 0.000 3.343 2000.000 1.362
33 825.00 900.00 423 662 1 0.000 3.343 2000.000 1.362
34 850.00 900.00 376 565 2 0.000 3.343 2000.000 1.362
35 875.00 900.00 309 414 0 0.000 3.343 2000.000 1.362
36 900.00 900.00 145 388 1 0.000 3.343 2000.000 1.362
37 925.00 900.00 101 360 4 0.000 3.343 2000.000 1.362
38 950.00 900.00 181 350 1 0.000 3.343 2000.000 1.362
39 975.00 900.00 312 395 4 0.000 3.343 2000.000 1.362
