# BinNR microsec tot-time (s)  O-Beam H-beam AUX Ampl(V) f(Hz) phase(deg) chi(pos)
0 0.00 900.00 224 590 1 0.000 3.343 2000.000 -1.077
1 25.00 900.00 280 752 4 0.000 3.343 2000.000 -1.077
2 50.00 900.00 326 662 1 0.000 3.343 2000.000 -1.077
3 75.00 900.00 302 604 4 0.000 3.343 2000.000 -1.077
4 100.00 900.00 236 426 1 0.000 3.343 2000.000 -1.077
5 125.00 900.00 169 376 2 0.000 3.343 2000.000 -1.077
6 150.00 900.00 109 336 2 0.000 3.343 2000.000 -1.077
7 175.00 900.00 171 315 2 0.000 3.343 2000.000 -1.077
8 200.00 900.00 255 331 2 0.000 3.343 2000.000 -1.077
9 225.00 900.00 402 322 1 0.000 3.343 2000.000 -1.077
10 250.00 900.00 494 333 1 0.000 3.343 2000.000 -1.077
11 275.00 900.00 504 436 3 0.000 3.343 2000.000 -1.077
12 300.00 900.00 486 584 1 0.000 3.343 2000.000 -1.077
13 325.00 900.00 460 702 4 0.000 3.343 2000.000 -1.077
14 350.00 900.00 490 680 3 0.000 3.343 2000.000 -1.077
15 375.00 900.00 424 626 0 0.000 3.343 2000.000 -1.077
16 400.00 900.00 318 551 3 0.000 3.343 2000.000 -1.077
17 425.00 900.00 147 476 3 0.000 3.343 2000.000 -1.077
18 450.00 900.00 119 516 2 0.000 3.343 2000.000 -1.077
19 475.00 900.00 159 495 1 0.000 3.343 2000.000 -1.077
20 500.00 900.00 241 613 2 0.000 3.343 2000.000 -1.077
21 525.00 900.00 281 684 2 0.000 3.343 2000.000 -1.077
22 550.00 900.00 349 647 3 0.000 3.343 2000.000 -1.077
23 575.00 900.00 297 577 2 0.000 3.343 2000.000 -1.077
24 600.00 900.00 236 439 3 0.000 3.343 2000.000 -1.077
25 625.00 900.00 160 342 6 0.000 3.343 2000.000 -1.077
26 650.00 900.00 129 338 2 0.000 3.343 2000.000 -1.077
27 675.00 900.00 157 321 3 0.000 3.343 2000.000 -1.077
28 700.00 900.00 282 334 1 0.000 3.343 2000.000 -1.077
29 725.00 900.00 435 320 3 0.000 3.343 2000.000 -1.077
30 750.00 900.00 501 343 1 0.000 3.343 2000.000 -1.077
31 775.00 900.00 490 425 1 0.000 3.343 2000.000 -1.077
32 800.00 900.00 518 572 1 0.000 3.343 2000.000 -1.077
33 825.00 900.00 500 698 1 0.000 3.343 2000.000 -1.077
34 850.00 900.00 496 715 5 0.000 3.343 2000.000 -1.077
35 875.00 900.00 453 604 1 0.000 3.343 2000.000 -1.077
36 900.00 900.00 315 509 1 0.000 3.343 2000.000 -1.077
37 925.00 900.00 195 464 2 0.000 3.343 2000.000 -1.077
38 950.00 900.00 111 506 4 0.000 3.343 2000.000 -1.077
39 975.00 900.00 168 575 1 0.000 3.343 2000.000 -1.077
