# BinNR microsec tot-time (s)  O-Beam H-beam AUX Ampl(V) f(Hz) phase(deg) chi(pos)
0 0.00 900.00 509 293 1 0.000 5.373 2000.000 -1.505
1 25.00 900.00 462 345 5 0.000 5.373 2000.000 -1.505
2 50.00 900.00 458 490 3 0.000 5.373 2000.000 -1.505
3 75.00 900.00 493 599 1 0.000 5.373 2000.000 -1.505
4 100.00 900.00 471 680 2 0.000 5.373 2000.000 -1.505
5 125.00 900.00 489 645 3 0.000 5.373 2000.000 -1.505
6 150.00 900.00 400 620 2 0.000 5.373 2000.000 -1.505
7 175.00 900.00 296 613 0 0.000 5.373 2000.000 -1.505
8 200.00 900.00 174 681 1 0.000 5.373 2000.000 -1.505
9 225.00 900.00 131 699 0 0.000 5.373 2000.000 -1.505
10 250.00 900.00 156 685 1 0.000 5.373 2000.000 -1.505
11 275.00 900.00 186 673 3 0.000 5.373 2000.000 -1.505
12 300.00 900.00 217 611 4 0.000 5.373 2000.000 -1.505
13 325.00 900.00 207 455 1 0.000 5.373 2000.000 -1.505
14 350.00 900.00 149 343 3 0.000 5.373 2000.000 -1.505
15 375.00 900.00 111 337 5 0.000 5.373 2000.000 -1.505
16 400.00 900.00 160 352 3 0.000 5.373 2000.000 -1.505
17 425.00 900.00 239 334 4 0.000 5.373 2000.000 -1.505
18 450.00 900.00 393 338 2 0.000 5.373 2000.000 -1.505
19 475.00 900.00 500 326 4 0.000 5.373 2000.000 -1.505
20 500.00 900.00 482 293 2 0.000 5.373 2000.000 -1.505
21 525.00 900.00 479 338 2 0.000 5.373 2000.000 -1.505
22 550.00 900.00 439 493 3 0.000 5.373 2000.000 -1.505
23 575.00 900.00 508 619 4 0.000 5.373 2000.000 -1.505
24 600.00 900.00 495 709 2 0.000 5.373 2000.000 -1.505
25 625.00 900.00 486 709 1 0.000 5.373 2000.000 -1.505
26 650.00 900.00 415 686 1 0.000 5.373 2000.000 -1.505
27 675.00 900.00 312 634 2 0.000 5.373 2000.000 -1.505
28 700.00 900.00 159 580 4 0.000 5.373 2000.000 -1.505
29 725.00 900.00 127 642 0 0.000 5.373 2000.000 -1.505
30 750.00 900.00 153 702 4 0.000 5.373 2000.000 -1.505
31 775.00 900.00 195 709 3 0.000 5.373 2000.000 -1.505
32 800.00 900.00 214 606 2 0.000 5.373 2000.000 -1.505
33 825.00 900.00 190 411 1 0.000 5.373 2000.000 -1.505
34 850.00 900.00 132 335 4 0.000 5.373 2000.000 -1.505
35 875.00 900.00 102 299 1 0.000 5.373 2000.000 -1.505
36 900.00 900.00 148 322 4 0.000 5.373 2000.000 -1.505
37 925.00 900.00 291 352 0 0.000 5.373 2000.000 -1.505
38 950.00 900.00 416 318 1 0.000 5.373 2000.000 -1.505
39 975.00 900.00 491 317 1 0.000 5.373 2000.000 -1.505
