# BinNR microsec tot-time (s)  O-Beam H-beam AUX Ampl(V) f(Hz) phase(deg) chi(pos)
0 0.00 900.00 326 441 5 0.000 5.373 2000.000 0.209
1 25.00 900.00 273 359 2 0.000 5.373 2000.000 0.209
2 50.00 900.00 245 341 2 0.000 5.373 2000.000 0.209
3 75.00 900.00 250 364 1 0.000 5.373 2000.000 0.209
4 100.00 900.00 338 481 2 0.000 5.373 2000.000 0.209
5 125.00 900.00 398 637 1 0.000 5.373 2000.000 0.209
6 150.00 900.00 491 609 4 0.000 5.373 2000.000 0.209
7 175.00 900.00 497 671 0 0.000 5.373 2000.000 0.209
8 200.00 900.00 400 722 1 0.000 5.373 2000.000 0.209
9 225.00 900.00 282 698 3 0.000 5.373 2000.000 0.209
10 250.00 900.00 161 612 4 0.000 5.373 2000.000 0.209
11 275.00 900.00 129 472 0 0.000 5.373 2000.000 0.209
12 300.00 900.00 135 358 1 0.000 5.373 2000.000 0.209
13 325.00 900.00 126 299 1 0.000 5.373 2000.000 0.209
14 350.00 900.00 166 367 0 0.000 5.373 2000.000 0.209
15 375.00 900.00 256 501 1 0.000 5.373 2000.000 0.209
16 400.00 900.00 372 521 1 0.000 5.373 2000.000 0.209
17 425.00 900.00 491 561 2 0.000 5.373 2000.000 0.209
18 450.00 900.00 506 562 2 0.000 5.373 2000.000 0.209
19 475.00 900.00 458 574 4 0.000 5.373 2000.000 0.209
20 500.00 900.00 343 423 1 0.000 5.373 2000.000 0.209
21 525.00 900.00 257 359 2 0.000 5.373 2000.000 0.209
22 550.00 900.00 235 339 6 0.000 5.373 2000.000 0.209
23 575.00 900.00 267 367 5 0.000 5.373 2000.000 0.209
24 600.00 900.00 325 452 4 0.000 5.373 2000.000 0.209
25 625.00 900.00 436 610 1 0.000 5.373 2000.000 0.209
26 650.00 900.00 464 732 0 0.000 5.373 2000.000 0.209
27 675.00 900.00 499 691 2 0.000 5.373 2000.000 0.209
28 700.00 900.00 412 700 4 0.000 5.373 2000.000 0.209
29 725.00 900.00 261 699 2 0.000 5.373 2000.000 0.209
30 750.00 900.00 167 622 1 0.000 5.373 2000.000 0.209
31 775.00 900.00 112 484 1 0.000 5.373 2000.000 0.209
32 800.00 900.00 123 365 2 0.000 5.373 2000.000 0.209
33 825.00 900.00 110 279 1 0.000 5.373 2000.000 0.209
34 850.00 900.00 173 419 2 0.000 5.373 2000.000 0.209
35 875.00 900.00 228 400 2 0.000 5.373 2000.000 0.209
36 900.00 900.00 403 545 2 0.000 5.373 2000.000 0.209
37 925.00 900.00 484 545 3 0.000 5.373 2000.000 0.209
38 950.00 900.00 470 579 1 0.000 5.373 2000.000 0.209
39 975.00 900.00 426 550 2 0.000 5.373 2000.000 0.209
