# BinNR microsec tot-time (s)  O-Beam H-beam AUX Ampl(V) f(Hz) phase(deg) chi(pos)
0 0.00 900.00 178 582 3 0.000 5.373 2000.000 -0.077
1 25.00 900.00 130 529 1 0.000 5.373 2000.000 -0.077
2 50.00 900.00 136 378 1 0.000 5.373 2000.000 -0.077
3 75.00 900.00 143 354 2 0.000 5.373 2000.000 -0.077
4 100.00 900.00 190 372 5 0.000 5.373 2000.000 -0.077
5 125.00 900.00 251 424 1 0.000 5.373 2000.000 -0.077
6 150.00 900.00 377 565 2 0.000 5.373 2000.000 -0.077
7 175.00 900.00 489 610 2 0.000 5.373 2000.000 -0.077
8 200.00 900.00 495 556 2 0.000 5.373 2000.000 -0.077
9 225.00 900.00 447 570 0 0.000 5.373 2000.000 -0.077
10 250.00 900.00 331 431 4 0.000 5.373 2000.000 -0.077
11 275.00 900.00 289 371 4 0.000 5.373 2000.000 -0.077
12 300.00 900.00 203 308 2 0.000 5.373 2000.000 -0.077
13 325.00 900.00 224 346 1 0.000 5.373 2000.000 -0.077
14 350.00 900.00 325 451 3 0.000 5.373 2000.000 -0.077
15 375.00 900.00 437 619 2 0.000 5.373 2000.000 -0.077
16 400.00 900.00 492 676 2 0.000 5.373 2000.000 -0.077
17 425.00 900.00 513 650 4 0.000 5.373 2000.000 -0.077
18 450.00 900.00 409 652 1 0.000 5.373 2000.000 -0.077
19 475.00 900.00 286 672 1 0.000 5.373 2000.000 -0.077
20 500.00 900.00 185 623 2 0.000 5.373 2000.000 -0.077
21 525.00 900.00 149 498 2 0.000 5.373 2000.000 -0.077
22 550.00 900.00 139 348 2 0.000 5.373 2000.000 -0.077
23 575.00 900.00 154 341 5 0.000 5.373 2000.000 -0.077
24 600.00 900.00 175 342 4 0.000 5.373 2000.000 -0.077
25 625.00 900.00 267 478 2 0.000 5.373 2000.000 -0.077
26 650.00 900.00 391 543 3 0.000 5.373 2000.000 -0.077
27 675.00 900.00 483 592 1 0.000 5.373 2000.000 -0.077
28 700.00 900.00 509 562 0 0.000 5.373 2000.000 -0.077
29 725.00 900.00 413 549 4 0.000 5.373 2000.000 -0.077
30 750.00 900.00 312 463 1 0.000 5.373 2000.000 -0.077
31 775.00 900.00 238 335 0 0.000 5.373 2000.000 -0.077
32 800.00 900.00 257 326 3 0.000 5.373 2000.000 -0.077
33 825.00 900.00 261 389 2 0.000 5.373 2000.000 -0.077
34 850.00 900.00 314 484 2 0.000 5.373 2000.000 -0.077
35 875.00 900.00 438 600 1 0.000 5.373 2000.000 -0.077
36 900.00 900.00 473 691 2 0.000 5.373 2000.000 -0.077
37 925.00 900.00 499 674 1 0.000 5.373 2000.000 -0.077
38 950.00 900.00 371 669 4 0.000 5.373 2000.000 -0.077
39 975.00 900.00 267 628 3 0.000 5.373 2000.000 -0.077
