# BinNR microsec tot-time (s)  O-Beam H-beam AUX Ampl(V) f(Hz) phase(deg) chi(pos)
0 0.00 1200.00 113 1138 104 1.112 3000.000 0.000 -1.077
1 25.00 1200.00 191 1257 239 1.112 3000.000 0.000 -1.077
2 50.00 1200.00 245 1017 443 1.112 3000.000 0.000 -1.077
3 75.00 1200.00 227 718 496 1.112 3000.000 0.000 -1.077
4 100.00 1200.00 154 651 502 1.112 3000.000 0.000 -1.077
5 125.00 1200.00 82 692 409 1.112 3000.000 0.000 -1.077
6 150.00 1200.00 89 901 173 1.112 3000.000 0.000 -1.077
7 175.00 1200.00 170 1205 106 1.112 3000.000 0.000 -1.077
8 200.00 1200.00 263 1226 219 1.112 3000.000 0.000 -1.077
9 225.00 1200.00 237 986 429 1.112 3000.000 0.000 -1.077
10 250.00 1200.00 240 814 455 1.112 3000.000 0.000 -1.077
11 275.00 1200.00 148 762 428 1.112 3000.000 0.000 -1.077
12 300.00 1200.00 61 857 295 1.112 3000.000 0.000 -1.077
13 325.00 1200.00 124 1098 102 1.112 3000.000 0.000 -1.077
14 350.00 1200.00 193 1267 170 1.112 3000.000 0.000 -1.077
15 375.00 1200.00 244 1120 337 1.112 3000.000 0.000 -1.077
16 400.00 1200.00 215 919 491 1.112 3000.000 0.000 -1.077
17 425.00 1200.00 193 676 530 1.112 3000.000 0.000 -1.077
18 450.00 1200.00 97 643 488 1.112 3000.000 0.000 -1.077
19 475.00 1200.00 88 848 276 1.112 3000.000 0.000 -1.077
20 500.00 1200.00 146 1035 121 1.112 3000.000 0.000 -1.077
21 525.00 1200.00 259 1267 175 1.112 3000.000 0.000 -1.077
22 550.00 1200.00 279 1097 371 1.112 3000.000 0.000 -1.077
23 575.00 1200.00 237 866 456 1.112 3000.000 0.000 -1.077
24 600.00 1200.00 161 805 438 1.112 3000.000 0.000 -1.077
25 625.00 1200.00 78 805 331 1.112 3000.000 0.000 -1.077
26 650.00 1200.00 74 1064 164 1.112 3000.000 0.000 -1.077
27 675.00 1200.00 159 1295 119 1.112 3000.000 0.000 -1.077
28 700.00 1200.00 228 1194 314 1.112 3000.000 0.000 -1.077
29 725.00 1200.00 274 903 457 1.112 3000.000 0.000 -1.077
30 750.00 1200.00 219 756 549 1.112 3000.000 0.000 -1.077
31 775.00 1200.00 129 646 501 1.112 3000.000 0.000 -1.077
32 800.00 1200.00 69 771 347 1.112 3000.000 0.000 -1.077
33 825.00 1200.00 152 963 155 1.112 3000.000 0.000 -1.077
34 850.00 1200.00 210 1287 139 1.112 3000.000 0.000 -1.077
35 875.00 1200.00 235 1214 294 1.112 3000.000 0.000 -1.077
36 900.00 1200.00 256 915 433 1.112 3000.000 0.000 -1.077
37 925.00 1200.00 205 740 499 1.112 3000.000 0.000 -1.077
38 950.00 1200.00 122 749 368 1.112 3000.000 0.000 -1.077
39 975.00 1200.00 52 938 207 1.112 3000.000 0.000 -1.077
