# BinNR microsec tot-time (s)  O-Beam AUX Ampl_1(V) f_1(Hz) phase_1(deg) Ampl_2(V) f_2(Hz) phase_2(deg) chi(pos)
0 0.00 600.00 49 103 0.000 3.100 10000.000 0.000
1 3.00 600.00 74 246 0.000 3.100 10000.000 0.000
2 6.00 600.00 74 217 0.000 3.100 10000.000 0.000
3 9.00 600.00 89 191 0.000 3.100 10000.000 0.000
4 12.00 600.00 80 165 0.000 3.100 10000.000 0.000
5 15.00 600.00 93 148 0.000 3.100 10000.000 0.000
6 18.00 600.00 86 142 0.000 3.100 10000.000 0.000
7 21.00 600.00 87 136 0.000 3.100 10000.000 0.000
8 24.00 600.00 108 125 0.000 3.100 10000.000 0.000
9 27.00 600.00 118 156 0.000 3.100 10000.000 0.000
10 30.00 600.00 111 151 0.000 3.100 10000.000 0.000
11 33.00 600.00 98 186 0.000 3.100 10000.000 0.000
12 36.00 600.00 125 217 0.000 3.100 10000.000 0.000
13 39.00 600.00 127 235 0.000 3.100 10000.000 0.000
14 42.00 600.00 128 263 0.000 3.100 10000.000 0.000
15 45.00 600.00 115 293 0.000 3.100 10000.000 0.000
16 48.00 600.00 133 302 0.000 3.100 10000.000 0.000
17 51.00 600.00 136 296 0.000 3.100 10000.000 0.000
18 54.00 600.00 138 312 0.000 3.100 10000.000 0.000
19 57.00 600.00 142 308 0.000 3.100 10000.000 0.000
20 60.00 600.00 158 342 0.000 3.100 10000.000 0.000
21 63.00 600.00 153 330 0.000 3.100 10000.000 0.000
22 66.00 600.00 139 323 0.000 3.100 10000.000 0.000
23 69.00 600.00 131 324 0.000 3.100 10000.000 0.000
24 72.00 600.00 126 291 0.000 3.100 10000.000 0.000
25 75.00 600.00 131 287 0.000 3.100 10000.000 0.000
26 78.00 600.00 127 284 0.000 3.100 10000.000 0.000
27 81.00 600.00 131 263 0.000 3.100 10000.000 0.000
28 84.00 600.00 132 201 0.000 3.100 10000.000 0.000
29 87.00 600.00 112 207 0.000 3.100 10000.000 0.000
30 90.00 600.00 105 175 0.000 3.100 10000.000 0.000
31 93.00 600.00 108 165 0.000 3.100 10000.000 0.000
32 96.00 600.00 98 138 0.000 3.100 10000.000 0.000
33 99.00 600.00 81 147 0.000 3.100 10000.000 0.000
34 102.00 600.00 95 126 0.000 3.100 10000.000 0.000
35 105.00 600.00 90 113 0.000 3.100 10000.000 0.000
36 108.00 600.00 103 94 0.000 3.100 10000.000 0.000
37 111.00 600.00 102 112 0.000 3.100 10000.000 0.000
38 114.00 600.00 113 120 0.000 3.100 10000.000 0.000
39 117.00 600.00 101 143 0.000 3.100 10000.000 0.000
40 120.00 600.00 129 121 0.000 3.100 10000.000 0.000
41 123.00 600.00 120 133 0.000 3.100 10000.000 0.000
42 126.00 600.00 112 148 0.000 3.100 10000.000 0.000
43 129.00 600.00 113 175 0.000 3.100 10000.000 0.000
44 132.00 600.00 106 199 0.000 3.100 10000.000 0.000
45 135.00 600.00 105 199 0.000 3.100 10000.000 0.000
46 138.00 600.00 111 248 0.000 3.100 10000.000 0.000
47 141.00 600.00 100 227 0.000 3.100 10000.000 0.000
48 144.00 600.00 125 264 0.000 3.100 10000.000 0.000
49 147.00 600.00 109 249 0.000 3.100 10000.000 0.000
50 150.00 600.00 124 297 0.000 3.100 10000.000 0.000
51 153.00 600.00 106 325 0.000 3.100 10000.000 0.000
52 156.00 600.00 109 304 0.000 3.100 10000.000 0.000
53 159.00 600.00 112 347 0.000 3.100 10000.000 0.000
54 162.00 600.00 132 338 0.000 3.100 10000.000 0.000
55 165.00 600.00 119 350 0.000 3.100 10000.000 0.000
56 168.00 600.00 132 315 0.000 3.100 10000.000 0.000
57 171.00 600.00 109 328 0.000 3.100 10000.000 0.000
58 174.00 600.00 100 296 0.000 3.100 10000.000 0.000
59 177.00 600.00 140 262 0.000 3.100 10000.000 0.000
60 180.00 600.00 112 258 0.000 3.100 10000.000 0.000
61 183.00 600.00 125 222 0.000 3.100 10000.000 0.000
62 186.00 600.00 111 223 0.000 3.100 10000.000 0.000
63 189.00 600.00 123 168 0.000 3.100 10000.000 0.000
64 192.00 600.00 96 168 0.000 3.100 10000.000 0.000
65 195.00 600.00 100 153 0.000 3.100 10000.000 0.000
66 198.00 600.00 134 114 0.000 3.100 10000.000 0.000
67 201.00 600.00 121 135 0.000 3.100 10000.000 0.000
68 204.00 600.00 115 128 0.000 3.100 10000.000 0.000
69 207.00 600.00 116 127 0.000 3.100 10000.000 0.000
70 210.00 600.00 101 104 0.000 3.100 10000.000 0.000
71 213.00 600.00 122 163 0.000 3.100 10000.000 0.000
72 216.00 600.00 120 198 0.000 3.100 10000.000 0.000
73 219.00 600.00 119 221 0.000 3.100 10000.000 0.000
74 222.00 600.00 107 250 0.000 3.100 10000.000 0.000
75 225.00 600.00 115 242 0.000 3.100 10000.000 0.000
76 228.00 600.00 122 259 0.000 3.100 10000.000 0.000
77 231.00 600.00 108 239 0.000 3.100 10000.000 0.000
78 234.00 600.00 112 224 0.000 3.100 10000.000 0.000
79 237.00 600.00 122 205 0.000 3.100 10000.000 0.000
80 240.00 600.00 113 186 0.000 3.100 10000.000 0.000
81 243.00 600.00 119 218 0.000 3.100 10000.000 0.000
82 246.00 600.00 118 209 0.000 3.100 10000.000 0.000
83 249.00 600.00 115 191 0.000 3.100 10000.000 0.000
84 252.00 600.00 126 189 0.000 3.100 10000.000 0.000
85 255.00 600.00 125 229 0.000 3.100 10000.000 0.000
86 258.00 600.00 119 225 0.000 3.100 10000.000 0.000
87 261.00 600.00 129 229 0.000 3.100 10000.000 0.000
88 264.00 600.00 126 219 0.000 3.100 10000.000 0.000
89 267.00 600.00 118 245 0.000 3.100 10000.000 0.000
90 270.00 600.00 107 203 0.000 3.100 10000.000 0.000
91 273.00 600.00 123 216 0.000 3.100 10000.000 0.000
92 276.00 600.00 125 227 0.000 3.100 10000.000 0.000
93 279.00 600.00 121 241 0.000 3.100 10000.000 0.000
94 282.00 600.00 111 207 0.000 3.100 10000.000 0.000
95 285.00 600.00 104 208 0.000 3.100 10000.000 0.000
96 288.00 600.00 132 225 0.000 3.100 10000.000 0.000
97 291.00 600.00 105 202 0.000 3.100 10000.000 0.000
98 294.00 600.00 116 236 0.000 3.100 10000.000 0.000
99 297.00 600.00 131 213 0.000 3.100 10000.000 0.000
100 300.00 600.00 133 192 0.000 3.100 10000.000 0.000
101 303.00 600.00 93 216 0.000 3.100 10000.000 0.000
102 306.00 600.00 131 206 0.000 3.100 10000.000 0.000
103 309.00 600.00 103 213 0.000 3.100 10000.000 0.000
104 312.00 600.00 99 218 0.000 3.100 10000.000 0.000
105 315.00 600.00 99 189 0.000 3.100 10000.000 0.000
106 318.00 600.00 93 231 0.000 3.100 10000.000 0.000
107 321.00 600.00 79 191 0.000 3.100 10000.000 0.000
108 324.00 600.00 84 218 0.000 3.100 10000.000 0.000
109 327.00 600.00 101 203 0.000 3.100 10000.000 0.000
110 330.00 600.00 115 199 0.000 3.100 10000.000 0.000
111 333.00 600.00 82 207 0.000 3.100 10000.000 0.000
112 336.00 600.00 132 224 0.000 3.100 10000.000 0.000
113 339.00 600.00 103 200 0.000 3.100 10000.000 0.000
114 342.00 600.00 104 196 0.000 3.100 10000.000 0.000
115 345.00 600.00 138 217 0.000 3.100 10000.000 0.000
116 348.00 600.00 135 193 0.000 3.100 10000.000 0.000
117 351.00 600.00 136 222 0.000 3.100 10000.000 0.000
118 354.00 600.00 130 229 0.000 3.100 10000.000 0.000
119 357.00 600.00 148 209 0.000 3.100 10000.000 0.000
120 360.00 600.00 156 217 0.000 3.100 10000.000 0.000
121 363.00 600.00 129 213 0.000 3.100 10000.000 0.000
122 366.00 600.00 141 196 0.000 3.100 10000.000 0.000
123 369.00 600.00 130 191 0.000 3.100 10000.000 0.000
124 372.00 600.00 155 224 0.000 3.100 10000.000 0.000
125 375.00 600.00 133 215 0.000 3.100 10000.000 0.000
126 378.00 600.00 152 222 0.000 3.100 10000.000 0.000
127 381.00 600.00 124 238 0.000 3.100 10000.000 0.000
128 384.00 600.00 103 228 0.000 3.100 10000.000 0.000
129 387.00 600.00 92 217 0.000 3.100 10000.000 0.000
130 390.00 600.00 121 209 0.000 3.100 10000.000 0.000
131 393.00 600.00 115 217 0.000 3.100 10000.000 0.000
132 396.00 600.00 97 193 0.000 3.100 10000.000 0.000
133 399.00 600.00 109 199 0.000 3.100 10000.000 0.000
134 402.00 600.00 94 233 0.000 3.100 10000.000 0.000
