# BinNR microsec tot-time (s)  O-Beam AUX Ampl(V) f(Hz) phase(deg) chi(pos)
0 0.00 1200.01 135 294 2.000 10000.000 0.000 -0.099
1 3.00 1200.01 238 486 2.000 10000.000 0.000 -0.099
2 6.00 1200.01 206 487 2.000 10000.000 0.000 -0.099
3 9.00 1200.01 208 391 2.000 10000.000 0.000 -0.099
4 12.00 1200.01 202 355 2.000 10000.000 0.000 -0.099
5 15.00 1200.01 174 304 2.000 10000.000 0.000 -0.099
6 18.00 1200.01 169 253 2.000 10000.000 0.000 -0.099
7 21.00 1200.01 166 193 2.000 10000.000 0.000 -0.099
8 24.00 1200.01 163 199 2.000 10000.000 0.000 -0.099
9 27.00 1200.01 167 176 2.000 10000.000 0.000 -0.099
10 30.00 1200.01 161 180 2.000 10000.000 0.000 -0.099
11 33.00 1200.01 183 200 2.000 10000.000 0.000 -0.099
12 36.00 1200.01 177 241 2.000 10000.000 0.000 -0.099
13 39.00 1200.01 141 234 2.000 10000.000 0.000 -0.099
14 42.00 1200.01 124 263 2.000 10000.000 0.000 -0.099
15 45.00 1200.01 155 274 2.000 10000.000 0.000 -0.099
16 48.00 1200.01 156 260 2.000 10000.000 0.000 -0.099
17 51.00 1200.01 149 239 2.000 10000.000 0.000 -0.099
18 54.00 1200.01 129 274 2.000 10000.000 0.000 -0.099
19 57.00 1200.01 134 244 2.000 10000.000 0.000 -0.099
20 60.00 1200.01 158 205 2.000 10000.000 0.000 -0.099
21 63.00 1200.01 147 211 2.000 10000.000 0.000 -0.099
22 66.00 1200.01 164 195 2.000 10000.000 0.000 -0.099
23 69.00 1200.01 161 189 2.000 10000.000 0.000 -0.099
24 72.00 1200.01 208 211 2.000 10000.000 0.000 -0.099
25 75.00 1200.01 200 215 2.000 10000.000 0.000 -0.099
26 78.00 1200.01 241 245 2.000 10000.000 0.000 -0.099
27 81.00 1200.01 226 323 2.000 10000.000 0.000 -0.099
28 84.00 1200.01 231 361 2.000 10000.000 0.000 -0.099
29 87.00 1200.01 241 397 2.000 10000.000 0.000 -0.099
30 90.00 1200.01 256 456 2.000 10000.000 0.000 -0.099
31 93.00 1200.01 239 497 2.000 10000.000 0.000 -0.099
32 96.00 1200.01 263 567 2.000 10000.000 0.000 -0.099
33 99.00 1200.01 226 561 2.000 10000.000 0.000 -0.099
34 102.00 1200.01 251 556 2.000 10000.000 0.000 -0.099
35 105.00 1200.01 216 566 2.000 10000.000 0.000 -0.099
36 108.00 1200.01 225 455 2.000 10000.000 0.000 -0.099
37 111.00 1200.01 215 405 2.000 10000.000 0.000 -0.099
38 114.00 1200.01 161 376 2.000 10000.000 0.000 -0.099
39 117.00 1200.01 174 352 2.000 10000.000 0.000 -0.099
40 120.00 1200.01 160 271 2.000 10000.000 0.000 -0.099
41 123.00 1200.01 179 223 2.000 10000.000 0.000 -0.099
42 126.00 1200.01 150 225 2.000 10000.000 0.000 -0.099
43 129.00 1200.01 155 173 2.000 10000.000 0.000 -0.099
44 132.00 1200.01 158 211 2.000 10000.000 0.000 -0.099
45 135.00 1200.01 141 207 2.000 10000.000 0.000 -0.099
46 138.00 1200.01 153 200 2.000 10000.000 0.000 -0.099
47 141.00 1200.01 135 246 2.000 10000.000 0.000 -0.099
48 144.00 1200.01 123 288 2.000 10000.000 0.000 -0.099
49 147.00 1200.01 136 275 2.000 10000.000 0.000 -0.099
50 150.00 1200.01 140 300 2.000 10000.000 0.000 -0.099
51 153.00 1200.01 134 267 2.000 10000.000 0.000 -0.099
52 156.00 1200.01 140 278 2.000 10000.000 0.000 -0.099
53 159.00 1200.01 153 253 2.000 10000.000 0.000 -0.099
54 162.00 1200.01 144 226 2.000 10000.000 0.000 -0.099
55 165.00 1200.01 175 205 2.000 10000.000 0.000 -0.099
56 168.00 1200.01 155 186 2.000 10000.000 0.000 -0.099
57 171.00 1200.01 187 183 2.000 10000.000 0.000 -0.099
58 174.00 1200.01 169 224 2.000 10000.000 0.000 -0.099
59 177.00 1200.01 201 245 2.000 10000.000 0.000 -0.099
60 180.00 1200.01 228 290 2.000 10000.000 0.000 -0.099
61 183.00 1200.01 210 342 2.000 10000.000 0.000 -0.099
62 186.00 1200.01 229 415 2.000 10000.000 0.000 -0.099
63 189.00 1200.01 228 465 2.000 10000.000 0.000 -0.099
64 192.00 1200.01 258 550 2.000 10000.000 0.000 -0.099
65 195.00 1200.01 269 577 2.000 10000.000 0.000 -0.099
66 198.00 1200.01 268 555 2.000 10000.000 0.000 -0.099
67 201.00 1200.01 259 533 2.000 10000.000 0.000 -0.099
68 204.00 1200.01 249 575 2.000 10000.000 0.000 -0.099
69 207.00 1200.01 232 531 2.000 10000.000 0.000 -0.099
70 210.00 1200.01 216 480 2.000 10000.000 0.000 -0.099
71 213.00 1200.01 205 418 2.000 10000.000 0.000 -0.099
72 216.00 1200.01 174 385 2.000 10000.000 0.000 -0.099
73 219.00 1200.01 174 274 2.000 10000.000 0.000 -0.099
74 222.00 1200.01 190 244 2.000 10000.000 0.000 -0.099
75 225.00 1200.01 145 219 2.000 10000.000 0.000 -0.099
76 228.00 1200.01 152 173 2.000 10000.000 0.000 -0.099
77 231.00 1200.01 161 183 2.000 10000.000 0.000 -0.099
78 234.00 1200.01 170 201 2.000 10000.000 0.000 -0.099
79 237.00 1200.01 151 184 2.000 10000.000 0.000 -0.099
80 240.00 1200.01 147 251 2.000 10000.000 0.000 -0.099
81 243.00 1200.01 169 237 2.000 10000.000 0.000 -0.099
82 246.00 1200.01 138 283 2.000 10000.000 0.000 -0.099
83 249.00 1200.01 176 309 2.000 10000.000 0.000 -0.099
84 252.00 1200.01 158 308 2.000 10000.000 0.000 -0.099
85 255.00 1200.01 152 230 2.000 10000.000 0.000 -0.099
86 258.00 1200.01 146 292 2.000 10000.000 0.000 -0.099
87 261.00 1200.01 138 236 2.000 10000.000 0.000 -0.099
88 264.00 1200.01 142 221 2.000 10000.000 0.000 -0.099
89 267.00 1200.01 136 182 2.000 10000.000 0.000 -0.099
90 270.00 1200.01 131 150 2.000 10000.000 0.000 -0.099
91 273.00 1200.01 157 163 2.000 10000.000 0.000 -0.099
92 276.00 1200.01 210 218 2.000 10000.000 0.000 -0.099
93 279.00 1200.01 215 271 2.000 10000.000 0.000 -0.099
94 282.00 1200.01 197 340 2.000 10000.000 0.000 -0.099
95 285.00 1200.01 221 387 2.000 10000.000 0.000 -0.099
96 288.00 1200.01 268 484 2.000 10000.000 0.000 -0.099
97 291.00 1200.01 254 480 2.000 10000.000 0.000 -0.099
98 294.00 1200.01 275 536 2.000 10000.000 0.000 -0.099
99 297.00 1200.01 241 553 2.000 10000.000 0.000 -0.099
100 300.00 1200.01 243 525 2.000 10000.000 0.000 -0.099
101 303.00 1200.01 193 472 2.000 10000.000 0.000 -0.099
