# BinNR microsec tot-time (s)  O-Beam H-beam AUX Ampl(V) f(Hz) phase(deg) chi(pos)
0 0.00 900.00 364 572 3 0.000 3.343 2000.000 0.637
1 25.00 900.00 434 681 6 0.000 3.343 2000.000 0.637
2 50.00 900.00 441 768 2 0.000 3.343 2000.000 0.637
3 75.00 900.00 443 805 0 0.000 3.343 2000.000 0.637
4 100.00 900.00 394 709 2 0.000 3.343 2000.000 0.637
5 125.00 900.00 270 555 1 0.000 3.343 2000.000 0.637
6 150.00 900.00 121 484 3 0.000 3.343 2000.000 0.637
7 175.00 900.00 84 438 2 0.000 3.343 2000.000 0.637
8 200.00 900.00 113 458 1 0.000 3.343 2000.000 0.637
9 225.00 900.00 215 518 2 0.000 3.343 2000.000 0.637
10 250.00 900.00 310 646 2 0.000 3.343 2000.000 0.637
11 275.00 900.00 421 689 1 0.000 3.343 2000.000 0.637
12 300.00 900.00 408 836 1 0.000 3.343 2000.000 0.637
13 325.00 900.00 410 778 1 0.000 3.343 2000.000 0.637
14 350.00 900.00 344 653 3 0.000 3.343 2000.000 0.637
15 375.00 900.00 247 573 2 0.000 3.343 2000.000 0.637
16 400.00 900.00 145 500 1 0.000 3.343 2000.000 0.637
17 425.00 900.00 75 441 1 0.000 3.343 2000.000 0.637
18 450.00 900.00 136 455 1 0.000 3.343 2000.000 0.637
19 475.00 900.00 244 494 2 0.000 3.343 2000.000 0.637
20 500.00 900.00 330 545 0 0.000 3.343 2000.000 0.637
21 525.00 900.00 419 629 3 0.000 3.343 2000.000 0.637
22 550.00 900.00 452 788 1 0.000 3.343 2000.000 0.637
23 575.00 900.00 431 776 0 0.000 3.343 2000.000 0.637
24 600.00 900.00 415 710 1 0.000 3.343 2000.000 0.637
25 625.00 900.00 299 655 1 0.000 3.343 2000.000 0.637
26 650.00 900.00 154 471 1 0.000 3.343 2000.000 0.637
27 675.00 900.00 97 450 2 0.000 3.343 2000.000 0.637
28 700.00 900.00 128 443 2 0.000 3.343 2000.000 0.637
29 725.00 900.00 234 468 3 0.000 3.343 2000.000 0.637
30 750.00 900.00 354 554 1 0.000 3.343 2000.000 0.637
31 775.00 900.00 412 735 3 0.000 3.343 2000.000 0.637
32 800.00 900.00 418 792 2 0.000 3.343 2000.000 0.637
33 825.00 900.00 423 788 1 0.000 3.343 2000.000 0.637
34 850.00 900.00 328 641 1 0.000 3.343 2000.000 0.637
35 875.00 900.00 230 574 1 0.000 3.343 2000.000 0.637
36 900.00 900.00 116 506 0 0.000 3.343 2000.000 0.637
37 925.00 900.00 86 439 2 0.000 3.343 2000.000 0.637
38 950.00 900.00 151 422 1 0.000 3.343 2000.000 0.637
39 975.00 900.00 252 460 5 0.000 3.343 2000.000 0.637
