# BinNR microsec tot-time (s)  O-Beam H-beam AUX Ampl(V) f(Hz) phase(deg) chi(pos)
0 0.00 900.00 352 465 3 0.000 3.343 2000.000 -0.802
1 25.00 900.00 335 423 2 0.000 3.343 2000.000 -0.802
2 50.00 900.00 278 409 3 0.000 3.343 2000.000 -0.802
3 75.00 900.00 310 538 5 0.000 3.343 2000.000 -0.802
4 100.00 900.00 368 676 3 0.000 3.343 2000.000 -0.802
5 125.00 900.00 463 712 3 0.000 3.343 2000.000 -0.802
6 150.00 900.00 465 829 2 0.000 3.343 2000.000 -0.802
7 175.00 900.00 399 817 2 0.000 3.343 2000.000 -0.802
8 200.00 900.00 312 794 2 0.000 3.343 2000.000 -0.802
9 225.00 900.00 181 783 3 0.000 3.343 2000.000 -0.802
10 250.00 900.00 98 773 7 0.000 3.343 2000.000 -0.802
11 275.00 900.00 84 683 2 0.000 3.343 2000.000 -0.802
12 300.00 900.00 59 501 1 0.000 3.343 2000.000 -0.802
13 325.00 900.00 76 436 3 0.000 3.343 2000.000 -0.802
14 350.00 900.00 81 398 9 0.000 3.343 2000.000 -0.802
15 375.00 900.00 130 455 2 0.000 3.343 2000.000 -0.802
16 400.00 900.00 273 518 3 0.000 3.343 2000.000 -0.802
17 425.00 900.00 416 585 3 0.000 3.343 2000.000 -0.802
18 450.00 900.00 434 577 5 0.000 3.343 2000.000 -0.802
19 475.00 900.00 509 523 3 0.000 3.343 2000.000 -0.802
20 500.00 900.00 389 446 4 0.000 3.343 2000.000 -0.802
21 525.00 900.00 275 366 3 0.000 3.343 2000.000 -0.802
22 550.00 900.00 283 400 5 0.000 3.343 2000.000 -0.802
23 575.00 900.00 311 496 1 0.000 3.343 2000.000 -0.802
24 600.00 900.00 364 739 4 0.000 3.343 2000.000 -0.802
25 625.00 900.00 446 832 6 0.000 3.343 2000.000 -0.802
26 650.00 900.00 469 785 7 0.000 3.343 2000.000 -0.802
27 675.00 900.00 427 804 4 0.000 3.343 2000.000 -0.802
28 700.00 900.00 316 783 1 0.000 3.343 2000.000 -0.802
29 725.00 900.00 176 791 3 0.000 3.343 2000.000 -0.802
30 750.00 900.00 86 841 2 0.000 3.343 2000.000 -0.802
31 775.00 900.00 79 677 5 0.000 3.343 2000.000 -0.802
32 800.00 900.00 89 531 0 0.000 3.343 2000.000 -0.802
33 825.00 900.00 71 419 2 0.000 3.343 2000.000 -0.802
34 850.00 900.00 82 418 1 0.000 3.343 2000.000 -0.802
35 875.00 900.00 138 467 2 0.000 3.343 2000.000 -0.802
36 900.00 900.00 287 552 4 0.000 3.343 2000.000 -0.802
37 925.00 900.00 424 580 3 0.000 3.343 2000.000 -0.802
38 950.00 900.00 460 551 1 0.000 3.343 2000.000 -0.802
39 975.00 900.00 456 561 1 0.000 3.343 2000.000 -0.802
