# BinNR microsec tot-time (s)  O-Beam H-beam AUX Ampl(V) f(Hz) phase(deg) chi(pos)
0 0.00 1200.00 84 1304 105 5.313 2000.000 0.000 0.637
1 25.00 1200.00 104 1395 154 5.313 2000.000 0.000 0.637
2 50.00 1200.00 138 1174 342 5.313 2000.000 0.000 0.637
3 75.00 1200.00 92 988 550 5.313 2000.000 0.000 0.637
4 100.00 1200.00 90 732 597 5.313 2000.000 0.000 0.637
5 125.00 1200.00 64 596 592 5.313 2000.000 0.000 0.637
6 150.00 1200.00 72 624 554 5.313 2000.000 0.000 0.637
7 175.00 1200.00 166 670 545 5.313 2000.000 0.000 0.637
8 200.00 1200.00 213 668 618 5.313 2000.000 0.000 0.637
9 225.00 1200.00 304 683 618 5.313 2000.000 0.000 0.637
10 250.00 1200.00 290 628 529 5.313 2000.000 0.000 0.637
11 275.00 1200.00 290 752 440 5.313 2000.000 0.000 0.637
12 300.00 1200.00 275 900 235 5.313 2000.000 0.000 0.637
13 325.00 1200.00 276 1216 122 5.313 2000.000 0.000 0.637
14 350.00 1200.00 325 1374 112 5.313 2000.000 0.000 0.637
15 375.00 1200.00 326 1396 156 5.313 2000.000 0.000 0.637
16 400.00 1200.00 247 1271 203 5.313 2000.000 0.000 0.637
17 425.00 1200.00 161 1211 208 5.313 2000.000 0.000 0.637
18 450.00 1200.00 92 1170 185 5.313 2000.000 0.000 0.637
19 475.00 1200.00 39 1296 122 5.313 2000.000 0.000 0.637
20 500.00 1200.00 86 1363 103 5.313 2000.000 0.000 0.637
21 525.00 1200.00 115 1366 183 5.313 2000.000 0.000 0.637
22 550.00 1200.00 138 1253 348 5.313 2000.000 0.000 0.637
23 575.00 1200.00 119 937 542 5.313 2000.000 0.000 0.637
24 600.00 1200.00 86 732 583 5.313 2000.000 0.000 0.637
25 625.00 1200.00 62 620 611 5.313 2000.000 0.000 0.637
26 650.00 1200.00 81 663 559 5.313 2000.000 0.000 0.637
27 675.00 1200.00 142 698 524 5.313 2000.000 0.000 0.637
28 700.00 1200.00 254 714 576 5.313 2000.000 0.000 0.637
29 725.00 1200.00 305 672 594 5.313 2000.000 0.000 0.637
30 750.00 1200.00 306 658 568 5.313 2000.000 0.000 0.637
31 775.00 1200.00 313 745 429 5.313 2000.000 0.000 0.637
32 800.00 1200.00 285 1001 251 5.313 2000.000 0.000 0.637
33 825.00 1200.00 312 1239 118 5.313 2000.000 0.000 0.637
34 850.00 1200.00 325 1419 98 5.313 2000.000 0.000 0.637
35 875.00 1200.00 300 1366 168 5.313 2000.000 0.000 0.637
36 900.00 1200.00 229 1260 234 5.313 2000.000 0.000 0.637
37 925.00 1200.00 179 1259 234 5.313 2000.000 0.000 0.637
38 950.00 1200.00 83 1189 196 5.313 2000.000 0.000 0.637
39 975.00 1200.00 48 1220 130 5.313 2000.000 0.000 0.637
