# BinNR microsec tot-time (s)  O-Beam H-beam AUX Ampl(V) f(Hz) phase(deg) chi(pos)
0 0.00 1200.00 285 626 542 5.313 2000.000 0.000 -0.231
1 25.00 1200.00 304 783 377 5.313 2000.000 0.000 -0.231
2 50.00 1200.00 284 956 232 5.313 2000.000 0.000 -0.231
3 75.00 1200.00 327 1235 109 5.313 2000.000 0.000 -0.231
4 100.00 1200.00 284 1338 116 5.313 2000.000 0.000 -0.231
5 125.00 1200.00 329 1386 162 5.313 2000.000 0.000 -0.231
6 150.00 1200.00 258 1223 238 5.313 2000.000 0.000 -0.231
7 175.00 1200.00 139 1195 228 5.313 2000.000 0.000 -0.231
8 200.00 1200.00 78 1199 171 5.313 2000.000 0.000 -0.231
9 225.00 1200.00 72 1354 125 5.313 2000.000 0.000 -0.231
10 250.00 1200.00 78 1311 102 5.313 2000.000 0.000 -0.231
11 275.00 1200.00 110 1381 152 5.313 2000.000 0.000 -0.231
12 300.00 1200.00 145 1232 371 5.313 2000.000 0.000 -0.231
13 325.00 1200.00 100 947 482 5.313 2000.000 0.000 -0.231
14 350.00 1200.00 76 735 586 5.313 2000.000 0.000 -0.231
15 375.00 1200.00 68 582 587 5.313 2000.000 0.000 -0.231
16 400.00 1200.00 67 663 561 5.313 2000.000 0.000 -0.231
17 425.00 1200.00 148 680 555 5.313 2000.000 0.000 -0.231
18 450.00 1200.00 246 693 568 5.313 2000.000 0.000 -0.231
19 475.00 1200.00 294 664 588 5.313 2000.000 0.000 -0.231
20 500.00 1200.00 348 626 535 5.313 2000.000 0.000 -0.231
21 525.00 1200.00 300 761 412 5.313 2000.000 0.000 -0.231
22 550.00 1200.00 297 969 264 5.313 2000.000 0.000 -0.231
23 575.00 1200.00 319 1210 122 5.313 2000.000 0.000 -0.231
24 600.00 1200.00 303 1405 121 5.313 2000.000 0.000 -0.231
25 625.00 1200.00 321 1345 183 5.313 2000.000 0.000 -0.231
26 650.00 1200.00 248 1295 255 5.313 2000.000 0.000 -0.231
27 675.00 1200.00 147 1192 218 5.313 2000.000 0.000 -0.231
28 700.00 1200.00 87 1177 203 5.313 2000.000 0.000 -0.231
29 725.00 1200.00 60 1320 151 5.313 2000.000 0.000 -0.231
30 750.00 1200.00 84 1412 105 5.313 2000.000 0.000 -0.231
31 775.00 1200.00 120 1383 179 5.313 2000.000 0.000 -0.231
32 800.00 1200.00 118 1213 354 5.313 2000.000 0.000 -0.231
33 825.00 1200.00 117 927 492 5.313 2000.000 0.000 -0.231
34 850.00 1200.00 76 771 601 5.313 2000.000 0.000 -0.231
35 875.00 1200.00 69 609 656 5.313 2000.000 0.000 -0.231
36 900.00 1200.00 80 613 578 5.313 2000.000 0.000 -0.231
37 925.00 1200.00 137 702 573 5.313 2000.000 0.000 -0.231
38 950.00 1200.00 262 692 586 5.313 2000.000 0.000 -0.231
39 975.00 1200.00 309 642 561 5.313 2000.000 0.000 -0.231
