# BinNR microsec tot-time (s)  O-Beam H-beam AUX Ampl(V) f(Hz) phase(deg) chi(pos)
0 0.00 1200.00 181 832 558 0.000 2.102 3000.000 -0.220
1 25.00 1200.00 109 602 486 0.000 2.102 3000.000 -0.220
2 50.00 1200.00 77 749 318 0.000 2.102 3000.000 -0.220
3 75.00 1200.00 65 923 237 0.000 2.102 3000.000 -0.220
4 100.00 1200.00 167 1102 220 0.000 2.102 3000.000 -0.220
5 125.00 1200.00 230 1095 359 0.000 2.102 3000.000 -0.220
6 150.00 1200.00 271 841 566 0.000 2.102 3000.000 -0.220
7 175.00 1200.00 194 610 553 0.000 2.102 3000.000 -0.220
8 200.00 1200.00 137 704 341 0.000 2.102 3000.000 -0.220
9 225.00 1200.00 132 982 168 0.000 2.102 3000.000 -0.220
10 250.00 1200.00 168 1229 137 0.000 2.102 3000.000 -0.220
11 275.00 1200.00 265 1262 192 0.000 2.102 3000.000 -0.220
12 300.00 1200.00 268 1154 331 0.000 2.102 3000.000 -0.220
13 325.00 1200.00 196 913 529 0.000 2.102 3000.000 -0.220
14 350.00 1200.00 117 651 552 0.000 2.102 3000.000 -0.220
15 375.00 1200.00 70 633 403 0.000 2.102 3000.000 -0.220
16 400.00 1200.00 71 945 241 0.000 2.102 3000.000 -0.220
17 425.00 1200.00 113 1086 213 0.000 2.102 3000.000 -0.220
18 450.00 1200.00 209 1129 292 0.000 2.102 3000.000 -0.220
19 475.00 1200.00 307 955 487 0.000 2.102 3000.000 -0.220
20 500.00 1200.00 235 707 510 0.000 2.102 3000.000 -0.220
21 525.00 1200.00 163 640 418 0.000 2.102 3000.000 -0.220
22 550.00 1200.00 130 849 234 0.000 2.102 3000.000 -0.220
23 575.00 1200.00 152 1178 145 0.000 2.102 3000.000 -0.220
24 600.00 1200.00 222 1207 141 0.000 2.102 3000.000 -0.220
25 625.00 1200.00 329 1238 266 0.000 2.102 3000.000 -0.220
26 650.00 1200.00 231 1047 483 0.000 2.102 3000.000 -0.220
27 675.00 1200.00 160 741 563 0.000 2.102 3000.000 -0.220
28 700.00 1200.00 80 615 466 0.000 2.102 3000.000 -0.220
29 725.00 1200.00 56 856 265 0.000 2.102 3000.000 -0.220
30 750.00 1200.00 120 1052 203 0.000 2.102 3000.000 -0.220
31 775.00 1200.00 194 1103 260 0.000 2.102 3000.000 -0.220
32 800.00 1200.00 288 1066 408 0.000 2.102 3000.000 -0.220
33 825.00 1200.00 273 796 581 0.000 2.102 3000.000 -0.220
34 850.00 1200.00 186 618 485 0.000 2.102 3000.000 -0.220
35 875.00 1200.00 114 777 254 0.000 2.102 3000.000 -0.220
36 900.00 1200.00 150 1089 149 0.000 2.102 3000.000 -0.220
37 925.00 1200.00 196 1217 141 0.000 2.102 3000.000 -0.220
38 950.00 1200.00 303 1288 217 0.000 2.102 3000.000 -0.220
39 975.00 1200.00 258 1177 368 0.000 2.102 3000.000 -0.220
