# BinNR microsec tot-time (s)  O-Beam H-beam AUX Ampl1(V) f1(Hz) phase1(deg) Ampl1(V) f1(Hz) phase1(deg) chi(pos)
0 0.00 1200.00 41 281 130 0.425 2000.000 0.000 0.425 3000.000 0.000 1.494
1 16.67 1200.00 50 231 138 0.425 2000.000 0.000 0.425 3000.000 0.000 1.494
2 33.33 1200.00 41 234 123 0.425 2000.000 0.000 0.425 3000.000 0.000 1.494
3 50.00 1200.00 49 258 147 0.425 2000.000 0.000 0.425 3000.000 0.000 1.494
4 66.67 1200.00 43 222 128 0.425 2000.000 0.000 0.425 3000.000 0.000 1.494
5 83.33 1200.00 46 253 150 0.425 2000.000 0.000 0.425 3000.000 0.000 1.494
6 100.00 1200.00 55 227 130 0.425 2000.000 0.000 0.425 3000.000 0.000 1.494
7 116.67 1200.00 46 255 107 0.425 2000.000 0.000 0.425 3000.000 0.000 1.494
8 133.33 1200.00 53 227 129 0.425 2000.000 0.000 0.425 3000.000 0.000 1.494
9 150.00 1200.00 53 223 137 0.425 2000.000 0.000 0.425 3000.000 0.000 1.494
10 166.67 1200.00 46 236 132 0.425 2000.000 0.000 0.425 3000.000 0.000 1.494
11 183.33 1200.00 57 218 139 0.425 2000.000 0.000 0.425 3000.000 0.000 1.494
12 200.00 1200.00 54 237 143 0.425 2000.000 0.000 0.425 3000.000 0.000 1.494
13 216.67 1200.00 57 237 114 0.425 2000.000 0.000 0.425 3000.000 0.000 1.494
14 233.33 1200.00 55 258 128 0.425 2000.000 0.000 0.425 3000.000 0.000 1.494
15 250.00 1200.00 49 267 114 0.425 2000.000 0.000 0.425 3000.000 0.000 1.494
16 266.67 1200.00 52 244 135 0.425 2000.000 0.000 0.425 3000.000 0.000 1.494
17 283.33 1200.00 40 264 115 0.425 2000.000 0.000 0.425 3000.000 0.000 1.494
18 300.00 1200.00 54 279 118 0.425 2000.000 0.000 0.425 3000.000 0.000 1.494
19 316.67 1200.00 51 268 137 0.425 2000.000 0.000 0.425 3000.000 0.000 1.494
20 333.33 1200.00 44 242 128 0.425 2000.000 0.000 0.425 3000.000 0.000 1.494
21 350.00 1200.00 49 227 131 0.425 2000.000 0.000 0.425 3000.000 0.000 1.494
22 366.67 1200.00 43 251 129 0.425 2000.000 0.000 0.425 3000.000 0.000 1.494
23 383.33 1200.00 50 222 97 0.425 2000.000 0.000 0.425 3000.000 0.000 1.494
24 400.00 1200.00 35 272 121 0.425 2000.000 0.000 0.425 3000.000 0.000 1.494
25 416.67 1200.00 46 234 146 0.425 2000.000 0.000 0.425 3000.000 0.000 1.494
26 433.33 1200.00 42 281 138 0.425 2000.000 0.000 0.425 3000.000 0.000 1.494
27 450.00 1200.00 49 258 141 0.425 2000.000 0.000 0.425 3000.000 0.000 1.494
28 466.67 1200.00 30 259 140 0.425 2000.000 0.000 0.425 3000.000 0.000 1.494
29 483.33 1200.00 43 274 165 0.425 2000.000 0.000 0.425 3000.000 0.000 1.494
30 500.00 1200.00 41 252 165 0.425 2000.000 0.000 0.425 3000.000 0.000 1.494
31 516.67 1200.00 64 259 140 0.425 2000.000 0.000 0.425 3000.000 0.000 1.494
32 533.33 1200.00 50 250 165 0.425 2000.000 0.000 0.425 3000.000 0.000 1.494
33 550.00 1200.00 56 263 140 0.425 2000.000 0.000 0.425 3000.000 0.000 1.494
34 566.67 1200.00 47 276 136 0.425 2000.000 0.000 0.425 3000.000 0.000 1.494
35 583.33 1200.00 56 261 142 0.425 2000.000 0.000 0.425 3000.000 0.000 1.494
36 600.00 1200.00 71 277 121 0.425 2000.000 0.000 0.425 3000.000 0.000 1.494
37 616.67 1200.00 60 257 101 0.425 2000.000 0.000 0.425 3000.000 0.000 1.494
38 633.33 1200.00 59 238 121 0.425 2000.000 0.000 0.425 3000.000 0.000 1.494
39 650.00 1200.00 50 232 109 0.425 2000.000 0.000 0.425 3000.000 0.000 1.494
40 666.67 1200.00 49 247 116 0.425 2000.000 0.000 0.425 3000.000 0.000 1.494
41 683.33 1200.00 56 243 103 0.425 2000.000 0.000 0.425 3000.000 0.000 1.494
42 700.00 1200.00 49 238 110 0.425 2000.000 0.000 0.425 3000.000 0.000 1.494
43 716.67 1200.00 49 220 106 0.425 2000.000 0.000 0.425 3000.000 0.000 1.494
44 733.33 1200.00 60 218 92 0.425 2000.000 0.000 0.425 3000.000 0.000 1.494
45 750.00 1200.00 48 219 105 0.425 2000.000 0.000 0.425 3000.000 0.000 1.494
46 766.67 1200.00 54 217 118 0.425 2000.000 0.000 0.425 3000.000 0.000 1.494
47 783.33 1200.00 44 230 111 0.425 2000.000 0.000 0.425 3000.000 0.000 1.494
48 800.00 1200.00 50 223 135 0.425 2000.000 0.000 0.425 3000.000 0.000 1.494
49 816.67 1200.00 56 267 139 0.425 2000.000 0.000 0.425 3000.000 0.000 1.494
50 833.34 1200.00 48 246 139 0.425 2000.000 0.000 0.425 3000.000 0.000 1.494
51 850.00 1200.00 41 279 160 0.425 2000.000 0.000 0.425 3000.000 0.000 1.494
52 866.67 1200.00 57 259 153 0.425 2000.000 0.000 0.425 3000.000 0.000 1.494
53 883.34 1200.00 50 302 149 0.425 2000.000 0.000 0.425 3000.000 0.000 1.494
54 900.00 1200.00 51 326 154 0.425 2000.000 0.000 0.425 3000.000 0.000 1.494
55 916.67 1200.00 64 304 162 0.425 2000.000 0.000 0.425 3000.000 0.000 1.494
56 933.34 1200.00 53 291 118 0.425 2000.000 0.000 0.425 3000.000 0.000 1.494
57 950.00 1200.00 41 275 129 0.425 2000.000 0.000 0.425 3000.000 0.000 1.494
58 966.67 1200.00 46 273 132 0.425 2000.000 0.000 0.425 3000.000 0.000 1.494
59 983.34 1200.00 51 265 152 0.425 2000.000 0.000 0.425 3000.000 0.000 1.494
60 1000.00 1200.00 43 235 114 0.425 2000.000 0.000 0.425 3000.000 0.000 1.494
61 1016.67 1200.00 35 239 105 0.425 2000.000 0.000 0.425 3000.000 0.000 1.494
62 1033.34 1200.00 52 239 131 0.425 2000.000 0.000 0.425 3000.000 0.000 1.494
63 1050.00 1200.00 37 237 124 0.425 2000.000 0.000 0.425 3000.000 0.000 1.494
64 1066.67 1200.00 46 247 116 0.425 2000.000 0.000 0.425 3000.000 0.000 1.494
65 1083.34 1200.00 50 222 124 0.425 2000.000 0.000 0.425 3000.000 0.000 1.494
66 1100.00 1200.00 68 246 110 0.425 2000.000 0.000 0.425 3000.000 0.000 1.494
67 1116.67 1200.00 49 238 137 0.425 2000.000 0.000 0.425 3000.000 0.000 1.494
68 1133.34 1200.00 56 232 135 0.425 2000.000 0.000 0.425 3000.000 0.000 1.494
69 1150.00 1200.00 52 250 127 0.425 2000.000 0.000 0.425 3000.000 0.000 1.494
70 1166.67 1200.00 53 235 145 0.425 2000.000 0.000 0.425 3000.000 0.000 1.494
71 1183.34 1200.00 56 243 124 0.425 2000.000 0.000 0.425 3000.000 0.000 1.494
72 1200.00 1200.00 53 271 133 0.425 2000.000 0.000 0.425 3000.000 0.000 1.494
73 1216.67 1200.00 68 243 150 0.425 2000.000 0.000 0.425 3000.000 0.000 1.494
74 1233.34 1200.00 51 268 129 0.425 2000.000 0.000 0.425 3000.000 0.000 1.494
75 1250.00 1200.00 63 235 124 0.425 2000.000 0.000 0.425 3000.000 0.000 1.494
76 1266.67 1200.00 54 262 136 0.425 2000.000 0.000 0.425 3000.000 0.000 1.494
77 1283.34 1200.00 37 234 118 0.425 2000.000 0.000 0.425 3000.000 0.000 1.494
78 1300.00 1200.00 59 267 119 0.425 2000.000 0.000 0.425 3000.000 0.000 1.494
79 1316.67 1200.00 40 255 115 0.425 2000.000 0.000 0.425 3000.000 0.000 1.494
80 1333.34 1200.00 42 258 135 0.425 2000.000 0.000 0.425 3000.000 0.000 1.494
81 1350.00 1200.00 39 263 112 0.425 2000.000 0.000 0.425 3000.000 0.000 1.494
82 1366.67 1200.00 31 251 140 0.425 2000.000 0.000 0.425 3000.000 0.000 1.494
83 1383.34 1200.00 40 270 124 0.425 2000.000 0.000 0.425 3000.000 0.000 1.494
84 1400.00 1200.00 42 227 129 0.425 2000.000 0.000 0.425 3000.000 0.000 1.494
85 1416.67 1200.00 36 269 147 0.425 2000.000 0.000 0.425 3000.000 0.000 1.494
86 1433.34 1200.00 39 243 118 0.425 2000.000 0.000 0.425 3000.000 0.000 1.494
87 1450.00 1200.00 50 242 142 0.425 2000.000 0.000 0.425 3000.000 0.000 1.494
88 1466.67 1200.00 35 260 146 0.425 2000.000 0.000 0.425 3000.000 0.000 1.494
89 1483.34 1200.00 49 273 142 0.425 2000.000 0.000 0.425 3000.000 0.000 1.494
90 1500.00 1200.00 52 272 160 0.425 2000.000 0.000 0.425 3000.000 0.000 1.494
91 1516.67 1200.00 50 276 143 0.425 2000.000 0.000 0.425 3000.000 0.000 1.494
92 1533.34 1200.00 59 265 170 0.425 2000.000 0.000 0.425 3000.000 0.000 1.494
93 1550.00 1200.00 59 286 131 0.425 2000.000 0.000 0.425 3000.000 0.000 1.494
94 1566.67 1200.00 59 276 152 0.425 2000.000 0.000 0.425 3000.000 0.000 1.494
95 1583.34 1200.00 65 263 135 0.425 2000.000 0.000 0.425 3000.000 0.000 1.494
96 1600.00 1200.00 53 237 128 0.425 2000.000 0.000 0.425 3000.000 0.000 1.494
97 1616.67 1200.00 58 247 122 0.425 2000.000 0.000 0.425 3000.000 0.000 1.494
98 1633.34 1200.00 52 223 127 0.425 2000.000 0.000 0.425 3000.000 0.000 1.494
99 1650.00 1200.00 48 235 111 0.425 2000.000 0.000 0.425 3000.000 0.000 1.494
100 1666.67 1200.00 58 217 120 0.425 2000.000 0.000 0.425 3000.000 0.000 1.494
101 1683.34 1200.00 55 241 106 0.425 2000.000 0.000 0.425 3000.000 0.000 1.494
102 1700.00 1200.00 56 232 105 0.425 2000.000 0.000 0.425 3000.000 0.000 1.494
103 1716.67 1200.00 55 206 113 0.425 2000.000 0.000 0.425 3000.000 0.000 1.494
104 1733.34 1200.00 45 224 104 0.425 2000.000 0.000 0.425 3000.000 0.000 1.494
105 1750.00 1200.00 55 206 115 0.425 2000.000 0.000 0.425 3000.000 0.000 1.494
106 1766.67 1200.00 50 210 137 0.425 2000.000 0.000 0.425 3000.000 0.000 1.494
107 1783.34 1200.00 49 211 128 0.425 2000.000 0.000 0.425 3000.000 0.000 1.494
108 1800.00 1200.00 49 250 152 0.425 2000.000 0.000 0.425 3000.000 0.000 1.494
109 1816.67 1200.00 42 263 167 0.425 2000.000 0.000 0.425 3000.000 0.000 1.494
110 1833.34 1200.00 59 242 145 0.425 2000.000 0.000 0.425 3000.000 0.000 1.494
111 1850.00 1200.00 44 270 142 0.425 2000.000 0.000 0.425 3000.000 0.000 1.494
112 1866.67 1200.00 51 264 128 0.425 2000.000 0.000 0.425 3000.000 0.000 1.494
113 1883.34 1200.00 46 301 129 0.425 2000.000 0.000 0.425 3000.000 0.000 1.494
114 1900.00 1200.00 56 258 148 0.425 2000.000 0.000 0.425 3000.000 0.000 1.494
115 1916.67 1200.00 55 287 143 0.425 2000.000 0.000 0.425 3000.000 0.000 1.494
116 1933.34 1200.00 45 276 149 0.425 2000.000 0.000 0.425 3000.000 0.000 1.494
117 1950.00 1200.00 36 282 143 0.425 2000.000 0.000 0.425 3000.000 0.000 1.494
118 1966.67 1200.00 45 277 143 0.425 2000.000 0.000 0.425 3000.000 0.000 1.494
119 1983.34 1200.00 39 251 132 0.425 2000.000 0.000 0.425 3000.000 0.000 1.494
