# BinNR microsec tot-time (s)  O-Beam H-beam AUX Ampl1(V) f1(Hz) phase1(deg) Ampl1(V) f1(Hz) phase1(deg) chi(pos)
0 0.00 1200.00 57 231 127 0.425 2000.000 0.000 0.425 3000.000 0.000 0.077
1 16.67 1200.00 54 216 132 0.425 2000.000 0.000 0.425 3000.000 0.000 0.077
2 33.33 1200.00 46 264 151 0.425 2000.000 0.000 0.425 3000.000 0.000 0.077
3 50.00 1200.00 56 261 170 0.425 2000.000 0.000 0.425 3000.000 0.000 0.077
4 66.67 1200.00 55 276 137 0.425 2000.000 0.000 0.425 3000.000 0.000 0.077
5 83.33 1200.00 54 253 151 0.425 2000.000 0.000 0.425 3000.000 0.000 0.077
6 100.00 1200.00 49 269 147 0.425 2000.000 0.000 0.425 3000.000 0.000 0.077
7 116.67 1200.00 50 272 141 0.425 2000.000 0.000 0.425 3000.000 0.000 0.077
8 133.33 1200.00 61 238 120 0.425 2000.000 0.000 0.425 3000.000 0.000 0.077
9 150.00 1200.00 60 264 132 0.425 2000.000 0.000 0.425 3000.000 0.000 0.077
10 166.67 1200.00 38 259 143 0.425 2000.000 0.000 0.425 3000.000 0.000 0.077
11 183.33 1200.00 36 249 131 0.425 2000.000 0.000 0.425 3000.000 0.000 0.077
12 200.00 1200.00 54 230 135 0.425 2000.000 0.000 0.425 3000.000 0.000 0.077
13 216.67 1200.00 42 235 157 0.425 2000.000 0.000 0.425 3000.000 0.000 0.077
14 233.33 1200.00 47 240 147 0.425 2000.000 0.000 0.425 3000.000 0.000 0.077
15 250.00 1200.00 50 215 139 0.425 2000.000 0.000 0.425 3000.000 0.000 0.077
16 266.67 1200.00 41 228 150 0.425 2000.000 0.000 0.425 3000.000 0.000 0.077
17 283.33 1200.00 48 232 149 0.425 2000.000 0.000 0.425 3000.000 0.000 0.077
18 300.00 1200.00 62 212 132 0.425 2000.000 0.000 0.425 3000.000 0.000 0.077
19 316.67 1200.00 63 225 141 0.425 2000.000 0.000 0.425 3000.000 0.000 0.077
20 333.33 1200.00 68 218 119 0.425 2000.000 0.000 0.425 3000.000 0.000 0.077
21 350.00 1200.00 73 229 142 0.425 2000.000 0.000 0.425 3000.000 0.000 0.077
22 366.67 1200.00 52 248 164 0.425 2000.000 0.000 0.425 3000.000 0.000 0.077
23 383.33 1200.00 50 253 148 0.425 2000.000 0.000 0.425 3000.000 0.000 0.077
24 400.00 1200.00 57 217 130 0.425 2000.000 0.000 0.425 3000.000 0.000 0.077
25 416.67 1200.00 65 230 146 0.425 2000.000 0.000 0.425 3000.000 0.000 0.077
26 433.33 1200.00 77 236 153 0.425 2000.000 0.000 0.425 3000.000 0.000 0.077
27 450.00 1200.00 63 241 111 0.425 2000.000 0.000 0.425 3000.000 0.000 0.077
28 466.67 1200.00 50 240 128 0.425 2000.000 0.000 0.425 3000.000 0.000 0.077
29 483.33 1200.00 54 229 100 0.425 2000.000 0.000 0.425 3000.000 0.000 0.077
30 500.00 1200.00 61 225 98 0.425 2000.000 0.000 0.425 3000.000 0.000 0.077
31 516.67 1200.00 53 210 113 0.425 2000.000 0.000 0.425 3000.000 0.000 0.077
32 533.33 1200.00 50 214 135 0.425 2000.000 0.000 0.425 3000.000 0.000 0.077
33 550.00 1200.00 57 244 112 0.425 2000.000 0.000 0.425 3000.000 0.000 0.077
34 566.67 1200.00 52 198 120 0.425 2000.000 0.000 0.425 3000.000 0.000 0.077
35 583.33 1200.00 54 229 133 0.425 2000.000 0.000 0.425 3000.000 0.000 0.077
36 600.00 1200.00 52 230 134 0.425 2000.000 0.000 0.425 3000.000 0.000 0.077
37 616.67 1200.00 58 251 146 0.425 2000.000 0.000 0.425 3000.000 0.000 0.077
38 633.33 1200.00 43 242 140 0.425 2000.000 0.000 0.425 3000.000 0.000 0.077
39 650.00 1200.00 57 240 139 0.425 2000.000 0.000 0.425 3000.000 0.000 0.077
40 666.67 1200.00 51 251 154 0.425 2000.000 0.000 0.425 3000.000 0.000 0.077
41 683.33 1200.00 59 272 152 0.425 2000.000 0.000 0.425 3000.000 0.000 0.077
42 700.00 1200.00 67 308 176 0.425 2000.000 0.000 0.425 3000.000 0.000 0.077
43 716.67 1200.00 56 245 141 0.425 2000.000 0.000 0.425 3000.000 0.000 0.077
44 733.33 1200.00 47 259 147 0.425 2000.000 0.000 0.425 3000.000 0.000 0.077
45 750.00 1200.00 61 278 138 0.425 2000.000 0.000 0.425 3000.000 0.000 0.077
46 766.67 1200.00 61 282 142 0.425 2000.000 0.000 0.425 3000.000 0.000 0.077
47 783.33 1200.00 65 233 130 0.425 2000.000 0.000 0.425 3000.000 0.000 0.077
48 800.00 1200.00 62 257 128 0.425 2000.000 0.000 0.425 3000.000 0.000 0.077
49 816.67 1200.00 55 235 145 0.425 2000.000 0.000 0.425 3000.000 0.000 0.077
50 833.34 1200.00 55 203 114 0.425 2000.000 0.000 0.425 3000.000 0.000 0.077
51 850.00 1200.00 68 201 127 0.425 2000.000 0.000 0.425 3000.000 0.000 0.077
52 866.67 1200.00 57 221 123 0.425 2000.000 0.000 0.425 3000.000 0.000 0.077
53 883.34 1200.00 54 222 129 0.425 2000.000 0.000 0.425 3000.000 0.000 0.077
54 900.00 1200.00 41 214 128 0.425 2000.000 0.000 0.425 3000.000 0.000 0.077
55 916.67 1200.00 64 216 126 0.425 2000.000 0.000 0.425 3000.000 0.000 0.077
56 933.34 1200.00 57 205 140 0.425 2000.000 0.000 0.425 3000.000 0.000 0.077
57 950.00 1200.00 62 230 136 0.425 2000.000 0.000 0.425 3000.000 0.000 0.077
58 966.67 1200.00 57 208 146 0.425 2000.000 0.000 0.425 3000.000 0.000 0.077
59 983.34 1200.00 57 197 144 0.425 2000.000 0.000 0.425 3000.000 0.000 0.077
60 1000.00 1200.00 63 232 143 0.425 2000.000 0.000 0.425 3000.000 0.000 0.077
61 1016.67 1200.00 53 254 137 0.425 2000.000 0.000 0.425 3000.000 0.000 0.077
62 1033.34 1200.00 56 220 142 0.425 2000.000 0.000 0.425 3000.000 0.000 0.077
63 1050.00 1200.00 67 259 125 0.425 2000.000 0.000 0.425 3000.000 0.000 0.077
64 1066.67 1200.00 59 243 133 0.425 2000.000 0.000 0.425 3000.000 0.000 0.077
65 1083.34 1200.00 54 236 162 0.425 2000.000 0.000 0.425 3000.000 0.000 0.077
66 1100.00 1200.00 52 279 150 0.425 2000.000 0.000 0.425 3000.000 0.000 0.077
67 1116.67 1200.00 51 276 141 0.425 2000.000 0.000 0.425 3000.000 0.000 0.077
68 1133.34 1200.00 45 250 144 0.425 2000.000 0.000 0.425 3000.000 0.000 0.077
69 1150.00 1200.00 49 263 131 0.425 2000.000 0.000 0.425 3000.000 0.000 0.077
70 1166.67 1200.00 51 226 153 0.425 2000.000 0.000 0.425 3000.000 0.000 0.077
71 1183.34 1200.00 61 263 136 0.425 2000.000 0.000 0.425 3000.000 0.000 0.077
72 1200.00 1200.00 43 228 159 0.425 2000.000 0.000 0.425 3000.000 0.000 0.077
73 1216.67 1200.00 45 226 113 0.425 2000.000 0.000 0.425 3000.000 0.000 0.077
74 1233.34 1200.00 52 236 164 0.425 2000.000 0.000 0.425 3000.000 0.000 0.077
75 1250.00 1200.00 40 253 154 0.425 2000.000 0.000 0.425 3000.000 0.000 0.077
76 1266.67 1200.00 52 231 137 0.425 2000.000 0.000 0.425 3000.000 0.000 0.077
77 1283.34 1200.00 66 196 144 0.425 2000.000 0.000 0.425 3000.000 0.000 0.077
78 1300.00 1200.00 57 202 148 0.425 2000.000 0.000 0.425 3000.000 0.000 0.077
79 1316.67 1200.00 59 220 152 0.425 2000.000 0.000 0.425 3000.000 0.000 0.077
80 1333.34 1200.00 49 260 136 0.425 2000.000 0.000 0.425 3000.000 0.000 0.077
81 1350.00 1200.00 52 251 147 0.425 2000.000 0.000 0.425 3000.000 0.000 0.077
82 1366.67 1200.00 51 245 140 0.425 2000.000 0.000 0.425 3000.000 0.000 0.077
83 1383.34 1200.00 72 226 142 0.425 2000.000 0.000 0.425 3000.000 0.000 0.077
84 1400.00 1200.00 65 230 150 0.425 2000.000 0.000 0.425 3000.000 0.000 0.077
85 1416.67 1200.00 63 210 138 0.425 2000.000 0.000 0.425 3000.000 0.000 0.077
86 1433.34 1200.00 64 238 126 0.425 2000.000 0.000 0.425 3000.000 0.000 0.077
87 1450.00 1200.00 63 235 135 0.425 2000.000 0.000 0.425 3000.000 0.000 0.077
88 1466.67 1200.00 66 211 130 0.425 2000.000 0.000 0.425 3000.000 0.000 0.077
89 1483.34 1200.00 60 222 96 0.425 2000.000 0.000 0.425 3000.000 0.000 0.077
90 1500.00 1200.00 72 215 105 0.425 2000.000 0.000 0.425 3000.000 0.000 0.077
91 1516.67 1200.00 57 236 99 0.425 2000.000 0.000 0.425 3000.000 0.000 0.077
92 1533.34 1200.00 51 251 134 0.425 2000.000 0.000 0.425 3000.000 0.000 0.077
93 1550.00 1200.00 53 224 143 0.425 2000.000 0.000 0.425 3000.000 0.000 0.077
94 1566.67 1200.00 57 242 127 0.425 2000.000 0.000 0.425 3000.000 0.000 0.077
95 1583.34 1200.00 51 216 130 0.425 2000.000 0.000 0.425 3000.000 0.000 0.077
96 1600.00 1200.00 43 239 145 0.425 2000.000 0.000 0.425 3000.000 0.000 0.077
97 1616.67 1200.00 37 251 120 0.425 2000.000 0.000 0.425 3000.000 0.000 0.077
98 1633.34 1200.00 58 236 158 0.425 2000.000 0.000 0.425 3000.000 0.000 0.077
99 1650.00 1200.00 66 265 138 0.425 2000.000 0.000 0.425 3000.000 0.000 0.077
100 1666.67 1200.00 60 241 145 0.425 2000.000 0.000 0.425 3000.000 0.000 0.077
101 1683.34 1200.00 49 271 152 0.425 2000.000 0.000 0.425 3000.000 0.000 0.077
102 1700.00 1200.00 45 250 166 0.425 2000.000 0.000 0.425 3000.000 0.000 0.077
103 1716.67 1200.00 44 248 165 0.425 2000.000 0.000 0.425 3000.000 0.000 0.077
104 1733.34 1200.00 58 267 141 0.425 2000.000 0.000 0.425 3000.000 0.000 0.077
105 1750.00 1200.00 61 292 153 0.425 2000.000 0.000 0.425 3000.000 0.000 0.077
106 1766.67 1200.00 47 242 157 0.425 2000.000 0.000 0.425 3000.000 0.000 0.077
107 1783.34 1200.00 63 258 131 0.425 2000.000 0.000 0.425 3000.000 0.000 0.077
108 1800.00 1200.00 68 229 125 0.425 2000.000 0.000 0.425 3000.000 0.000 0.077
109 1816.67 1200.00 52 223 136 0.425 2000.000 0.000 0.425 3000.000 0.000 0.077
110 1833.34 1200.00 62 219 127 0.425 2000.000 0.000 0.425 3000.000 0.000 0.077
111 1850.00 1200.00 59 196 121 0.425 2000.000 0.000 0.425 3000.000 0.000 0.077
112 1866.67 1200.00 49 229 129 0.425 2000.000 0.000 0.425 3000.000 0.000 0.077
113 1883.34 1200.00 49 228 126 0.425 2000.000 0.000 0.425 3000.000 0.000 0.077
114 1900.00 1200.00 71 230 114 0.425 2000.000 0.000 0.425 3000.000 0.000 0.077
115 1916.67 1200.00 71 218 141 0.425 2000.000 0.000 0.425 3000.000 0.000 0.077
116 1933.34 1200.00 56 229 133 0.425 2000.000 0.000 0.425 3000.000 0.000 0.077
117 1950.00 1200.00 47 197 123 0.425 2000.000 0.000 0.425 3000.000 0.000 0.077
118 1966.67 1200.00 60 216 127 0.425 2000.000 0.000 0.425 3000.000 0.000 0.077
119 1983.34 1200.00 41 228 143 0.425 2000.000 0.000 0.425 3000.000 0.000 0.077
