# BinNR microsec tot-time (s)  O-Beam H-beam AUX Ampl1(V) f1(Hz) phase1(deg) Ampl1(V) f1(Hz) phase1(deg) chi(pos)
0 0.00 1200.00 34 304 95 0.425 2000.000 0.000 0.425 3000.000 0.000 1.362
1 16.67 1200.00 27 296 85 0.425 2000.000 0.000 0.425 3000.000 0.000 1.362
2 33.33 1200.00 36 273 93 0.425 2000.000 0.000 0.425 3000.000 0.000 1.362
3 50.00 1200.00 24 275 94 0.425 2000.000 0.000 0.425 3000.000 0.000 1.362
4 66.67 1200.00 41 264 109 0.425 2000.000 0.000 0.425 3000.000 0.000 1.362
5 83.33 1200.00 44 289 102 0.425 2000.000 0.000 0.425 3000.000 0.000 1.362
6 100.00 1200.00 36 288 91 0.425 2000.000 0.000 0.425 3000.000 0.000 1.362
7 116.67 1200.00 38 252 92 0.425 2000.000 0.000 0.425 3000.000 0.000 1.362
8 133.33 1200.00 36 274 108 0.425 2000.000 0.000 0.425 3000.000 0.000 1.362
9 150.00 1200.00 41 300 93 0.425 2000.000 0.000 0.425 3000.000 0.000 1.362
10 166.67 1200.00 42 270 85 0.425 2000.000 0.000 0.425 3000.000 0.000 1.362
11 183.33 1200.00 50 314 116 0.425 2000.000 0.000 0.425 3000.000 0.000 1.362
12 200.00 1200.00 48 277 92 0.425 2000.000 0.000 0.425 3000.000 0.000 1.362
13 216.67 1200.00 46 281 103 0.425 2000.000 0.000 0.425 3000.000 0.000 1.362
14 233.33 1200.00 44 280 113 0.425 2000.000 0.000 0.425 3000.000 0.000 1.362
15 250.00 1200.00 36 328 108 0.425 2000.000 0.000 0.425 3000.000 0.000 1.362
16 266.67 1200.00 42 315 96 0.425 2000.000 0.000 0.425 3000.000 0.000 1.362
17 283.33 1200.00 41 291 80 0.425 2000.000 0.000 0.425 3000.000 0.000 1.362
18 300.00 1200.00 38 308 97 0.425 2000.000 0.000 0.425 3000.000 0.000 1.362
19 316.67 1200.00 41 296 109 0.425 2000.000 0.000 0.425 3000.000 0.000 1.362
20 333.33 1200.00 39 278 110 0.425 2000.000 0.000 0.425 3000.000 0.000 1.362
21 350.00 1200.00 29 272 83 0.425 2000.000 0.000 0.425 3000.000 0.000 1.362
22 366.67 1200.00 35 291 99 0.425 2000.000 0.000 0.425 3000.000 0.000 1.362
23 383.33 1200.00 29 284 112 0.425 2000.000 0.000 0.425 3000.000 0.000 1.362
24 400.00 1200.00 23 289 98 0.425 2000.000 0.000 0.425 3000.000 0.000 1.362
25 416.67 1200.00 26 276 113 0.425 2000.000 0.000 0.425 3000.000 0.000 1.362
26 433.33 1200.00 30 270 109 0.425 2000.000 0.000 0.425 3000.000 0.000 1.362
27 450.00 1200.00 37 275 106 0.425 2000.000 0.000 0.425 3000.000 0.000 1.362
28 466.67 1200.00 30 238 130 0.425 2000.000 0.000 0.425 3000.000 0.000 1.362
29 483.33 1200.00 35 317 127 0.425 2000.000 0.000 0.425 3000.000 0.000 1.362
30 500.00 1200.00 37 334 122 0.425 2000.000 0.000 0.425 3000.000 0.000 1.362
31 516.67 1200.00 46 302 135 0.425 2000.000 0.000 0.425 3000.000 0.000 1.362
32 533.33 1200.00 41 310 129 0.425 2000.000 0.000 0.425 3000.000 0.000 1.362
33 550.00 1200.00 43 293 122 0.425 2000.000 0.000 0.425 3000.000 0.000 1.362
34 566.67 1200.00 49 331 126 0.425 2000.000 0.000 0.425 3000.000 0.000 1.362
35 583.33 1200.00 62 321 110 0.425 2000.000 0.000 0.425 3000.000 0.000 1.362
36 600.00 1200.00 51 278 106 0.425 2000.000 0.000 0.425 3000.000 0.000 1.362
37 616.67 1200.00 39 267 101 0.425 2000.000 0.000 0.425 3000.000 0.000 1.362
38 633.33 1200.00 45 285 103 0.425 2000.000 0.000 0.425 3000.000 0.000 1.362
39 650.00 1200.00 43 249 76 0.425 2000.000 0.000 0.425 3000.000 0.000 1.362
40 666.67 1200.00 41 262 78 0.425 2000.000 0.000 0.425 3000.000 0.000 1.362
41 683.33 1200.00 27 231 73 0.425 2000.000 0.000 0.425 3000.000 0.000 1.362
42 700.00 1200.00 36 263 74 0.425 2000.000 0.000 0.425 3000.000 0.000 1.362
43 716.67 1200.00 46 260 89 0.425 2000.000 0.000 0.425 3000.000 0.000 1.362
44 733.33 1200.00 35 239 88 0.425 2000.000 0.000 0.425 3000.000 0.000 1.362
45 750.00 1200.00 40 267 98 0.425 2000.000 0.000 0.425 3000.000 0.000 1.362
46 766.67 1200.00 36 257 93 0.425 2000.000 0.000 0.425 3000.000 0.000 1.362
47 783.33 1200.00 27 296 108 0.425 2000.000 0.000 0.425 3000.000 0.000 1.362
48 800.00 1200.00 44 287 123 0.425 2000.000 0.000 0.425 3000.000 0.000 1.362
49 816.67 1200.00 45 298 106 0.425 2000.000 0.000 0.425 3000.000 0.000 1.362
50 833.34 1200.00 34 320 116 0.425 2000.000 0.000 0.425 3000.000 0.000 1.362
51 850.00 1200.00 35 334 107 0.425 2000.000 0.000 0.425 3000.000 0.000 1.362
52 866.67 1200.00 45 325 121 0.425 2000.000 0.000 0.425 3000.000 0.000 1.362
53 883.34 1200.00 48 317 131 0.425 2000.000 0.000 0.425 3000.000 0.000 1.362
54 900.00 1200.00 40 324 121 0.425 2000.000 0.000 0.425 3000.000 0.000 1.362
55 916.67 1200.00 49 326 123 0.425 2000.000 0.000 0.425 3000.000 0.000 1.362
56 933.34 1200.00 32 334 142 0.425 2000.000 0.000 0.425 3000.000 0.000 1.362
57 950.00 1200.00 42 327 117 0.425 2000.000 0.000 0.425 3000.000 0.000 1.362
58 966.67 1200.00 47 342 107 0.425 2000.000 0.000 0.425 3000.000 0.000 1.362
59 983.34 1200.00 36 287 107 0.425 2000.000 0.000 0.425 3000.000 0.000 1.362
60 1000.00 1200.00 35 314 114 0.425 2000.000 0.000 0.425 3000.000 0.000 1.362
61 1016.67 1200.00 27 287 109 0.425 2000.000 0.000 0.425 3000.000 0.000 1.362
62 1033.34 1200.00 38 291 78 0.425 2000.000 0.000 0.425 3000.000 0.000 1.362
63 1050.00 1200.00 31 253 77 0.425 2000.000 0.000 0.425 3000.000 0.000 1.362
64 1066.67 1200.00 27 296 93 0.425 2000.000 0.000 0.425 3000.000 0.000 1.362
65 1083.34 1200.00 40 266 110 0.425 2000.000 0.000 0.425 3000.000 0.000 1.362
66 1100.00 1200.00 39 260 115 0.425 2000.000 0.000 0.425 3000.000 0.000 1.362
67 1116.67 1200.00 36 284 112 0.425 2000.000 0.000 0.425 3000.000 0.000 1.362
68 1133.34 1200.00 39 272 99 0.425 2000.000 0.000 0.425 3000.000 0.000 1.362
69 1150.00 1200.00 41 260 95 0.425 2000.000 0.000 0.425 3000.000 0.000 1.362
70 1166.67 1200.00 38 291 103 0.425 2000.000 0.000 0.425 3000.000 0.000 1.362
71 1183.34 1200.00 36 277 104 0.425 2000.000 0.000 0.425 3000.000 0.000 1.362
72 1200.00 1200.00 47 296 113 0.425 2000.000 0.000 0.425 3000.000 0.000 1.362
73 1216.67 1200.00 40 302 97 0.425 2000.000 0.000 0.425 3000.000 0.000 1.362
74 1233.34 1200.00 51 284 102 0.425 2000.000 0.000 0.425 3000.000 0.000 1.362
75 1250.00 1200.00 42 327 102 0.425 2000.000 0.000 0.425 3000.000 0.000 1.362
76 1266.67 1200.00 48 291 100 0.425 2000.000 0.000 0.425 3000.000 0.000 1.362
77 1283.34 1200.00 44 318 96 0.425 2000.000 0.000 0.425 3000.000 0.000 1.362
78 1300.00 1200.00 41 279 92 0.425 2000.000 0.000 0.425 3000.000 0.000 1.362
79 1316.67 1200.00 43 314 106 0.425 2000.000 0.000 0.425 3000.000 0.000 1.362
80 1333.34 1200.00 31 326 99 0.425 2000.000 0.000 0.425 3000.000 0.000 1.362
81 1350.00 1200.00 31 320 95 0.425 2000.000 0.000 0.425 3000.000 0.000 1.362
82 1366.67 1200.00 15 289 96 0.425 2000.000 0.000 0.425 3000.000 0.000 1.362
83 1383.34 1200.00 39 309 86 0.425 2000.000 0.000 0.425 3000.000 0.000 1.362
84 1400.00 1200.00 32 284 111 0.425 2000.000 0.000 0.425 3000.000 0.000 1.362
85 1416.67 1200.00 21 298 125 0.425 2000.000 0.000 0.425 3000.000 0.000 1.362
86 1433.34 1200.00 31 290 102 0.425 2000.000 0.000 0.425 3000.000 0.000 1.362
87 1450.00 1200.00 37 303 112 0.425 2000.000 0.000 0.425 3000.000 0.000 1.362
88 1466.67 1200.00 39 316 130 0.425 2000.000 0.000 0.425 3000.000 0.000 1.362
89 1483.34 1200.00 44 310 113 0.425 2000.000 0.000 0.425 3000.000 0.000 1.362
90 1500.00 1200.00 30 294 145 0.425 2000.000 0.000 0.425 3000.000 0.000 1.362
91 1516.67 1200.00 40 324 130 0.425 2000.000 0.000 0.425 3000.000 0.000 1.362
92 1533.34 1200.00 48 362 118 0.425 2000.000 0.000 0.425 3000.000 0.000 1.362
93 1550.00 1200.00 38 285 133 0.425 2000.000 0.000 0.425 3000.000 0.000 1.362
94 1566.67 1200.00 33 297 118 0.425 2000.000 0.000 0.425 3000.000 0.000 1.362
95 1583.34 1200.00 53 285 90 0.425 2000.000 0.000 0.425 3000.000 0.000 1.362
96 1600.00 1200.00 53 314 93 0.425 2000.000 0.000 0.425 3000.000 0.000 1.362
97 1616.67 1200.00 39 286 108 0.425 2000.000 0.000 0.425 3000.000 0.000 1.362
98 1633.34 1200.00 47 285 85 0.425 2000.000 0.000 0.425 3000.000 0.000 1.362
99 1650.00 1200.00 50 293 85 0.425 2000.000 0.000 0.425 3000.000 0.000 1.362
100 1666.67 1200.00 33 254 82 0.425 2000.000 0.000 0.425 3000.000 0.000 1.362
101 1683.34 1200.00 42 258 90 0.425 2000.000 0.000 0.425 3000.000 0.000 1.362
102 1700.00 1200.00 44 250 74 0.425 2000.000 0.000 0.425 3000.000 0.000 1.362
103 1716.67 1200.00 43 261 79 0.425 2000.000 0.000 0.425 3000.000 0.000 1.362
104 1733.34 1200.00 33 245 93 0.425 2000.000 0.000 0.425 3000.000 0.000 1.362
105 1750.00 1200.00 42 274 92 0.425 2000.000 0.000 0.425 3000.000 0.000 1.362
106 1766.67 1200.00 33 259 94 0.425 2000.000 0.000 0.425 3000.000 0.000 1.362
107 1783.34 1200.00 39 287 103 0.425 2000.000 0.000 0.425 3000.000 0.000 1.362
108 1800.00 1200.00 37 265 96 0.425 2000.000 0.000 0.425 3000.000 0.000 1.362
109 1816.67 1200.00 44 293 114 0.425 2000.000 0.000 0.425 3000.000 0.000 1.362
110 1833.34 1200.00 37 294 134 0.425 2000.000 0.000 0.425 3000.000 0.000 1.362
111 1850.00 1200.00 32 311 120 0.425 2000.000 0.000 0.425 3000.000 0.000 1.362
112 1866.67 1200.00 35 319 144 0.425 2000.000 0.000 0.425 3000.000 0.000 1.362
113 1883.34 1200.00 38 362 114 0.425 2000.000 0.000 0.425 3000.000 0.000 1.362
114 1900.00 1200.00 37 347 132 0.425 2000.000 0.000 0.425 3000.000 0.000 1.362
115 1916.67 1200.00 33 347 116 0.425 2000.000 0.000 0.425 3000.000 0.000 1.362
116 1933.34 1200.00 49 331 104 0.425 2000.000 0.000 0.425 3000.000 0.000 1.362
117 1950.00 1200.00 42 322 130 0.425 2000.000 0.000 0.425 3000.000 0.000 1.362
118 1966.67 1200.00 36 339 109 0.425 2000.000 0.000 0.425 3000.000 0.000 1.362
119 1983.34 1200.00 37 300 104 0.425 2000.000 0.000 0.425 3000.000 0.000 1.362
