# BinNR microsec tot-time (s)  O-Beam H-beam AUX Ampl(V) f(Hz) phase(deg) chi(pos)
0 0.00 900.00 152 567 0 0.000 5.373 2000.000 0.363
1 25.00 900.00 165 526 0 0.000 5.373 2000.000 0.363
2 50.00 900.00 162 471 0 0.000 5.373 2000.000 0.363
3 75.00 900.00 165 352 1 0.000 5.373 2000.000 0.363
4 100.00 900.00 119 315 1 0.000 5.373 2000.000 0.363
5 125.00 900.00 159 310 2 0.000 5.373 2000.000 0.363
6 150.00 900.00 191 345 0 0.000 5.373 2000.000 0.363
7 175.00 900.00 316 385 1 0.000 5.373 2000.000 0.363
8 200.00 900.00 391 326 1 0.000 5.373 2000.000 0.363
9 225.00 900.00 422 359 1 0.000 5.373 2000.000 0.363
10 250.00 900.00 391 339 0 0.000 5.373 2000.000 0.363
11 275.00 900.00 388 280 0 0.000 5.373 2000.000 0.363
12 300.00 900.00 350 338 2 0.000 5.373 2000.000 0.363
13 325.00 900.00 380 430 1 0.000 5.373 2000.000 0.363
14 350.00 900.00 361 535 0 0.000 5.373 2000.000 0.363
15 375.00 900.00 394 570 1 0.000 5.373 2000.000 0.363
16 400.00 900.00 380 565 1 0.000 5.373 2000.000 0.363
17 425.00 900.00 280 553 1 0.000 5.373 2000.000 0.363
18 450.00 900.00 212 621 0 0.000 5.373 2000.000 0.363
19 475.00 900.00 182 588 0 0.000 5.373 2000.000 0.363
20 500.00 900.00 159 547 1 0.000 5.373 2000.000 0.363
21 525.00 900.00 141 500 2 0.000 5.373 2000.000 0.363
22 550.00 900.00 146 459 1 0.000 5.373 2000.000 0.363
23 575.00 900.00 148 365 1 0.000 5.373 2000.000 0.363
24 600.00 900.00 126 288 2 0.000 5.373 2000.000 0.363
25 625.00 900.00 145 296 0 0.000 5.373 2000.000 0.363
26 650.00 900.00 199 345 0 0.000 5.373 2000.000 0.363
27 675.00 900.00 285 347 2 0.000 5.373 2000.000 0.363
28 700.00 900.00 378 397 0 0.000 5.373 2000.000 0.363
29 725.00 900.00 429 344 1 0.000 5.373 2000.000 0.363
30 750.00 900.00 413 305 0 0.000 5.373 2000.000 0.363
31 775.00 900.00 366 286 1 0.000 5.373 2000.000 0.363
32 800.00 900.00 380 357 1 0.000 5.373 2000.000 0.363
33 825.00 900.00 344 470 1 0.000 5.373 2000.000 0.363
34 850.00 900.00 375 557 1 0.000 5.373 2000.000 0.363
35 875.00 900.00 432 553 0 0.000 5.373 2000.000 0.363
36 900.00 900.00 373 541 1 0.000 5.373 2000.000 0.363
37 925.00 900.00 335 553 2 0.000 5.373 2000.000 0.363
38 950.00 900.00 208 509 1 0.000 5.373 2000.000 0.363
39 975.00 900.00 140 535 1 0.000 5.373 2000.000 0.363
