# BinNR microsec tot-time (s)  O-Beam H-beam AUX Ampl(V) f(Hz) phase(deg) chi(pos)
0 0.00 900.00 254 405 0 0.000 5.373 2000.000 0.791
1 25.00 900.00 187 381 0 0.000 5.373 2000.000 0.791
2 50.00 900.00 219 268 1 0.000 5.373 2000.000 0.791
3 75.00 900.00 182 322 1 0.000 5.373 2000.000 0.791
4 100.00 900.00 238 416 1 0.000 5.373 2000.000 0.791
5 125.00 900.00 280 452 1 0.000 5.373 2000.000 0.791
6 150.00 900.00 361 525 0 0.000 5.373 2000.000 0.791
7 175.00 900.00 372 526 1 0.000 5.373 2000.000 0.791
8 200.00 900.00 334 556 0 0.000 5.373 2000.000 0.791
9 225.00 900.00 272 511 0 0.000 5.373 2000.000 0.791
10 250.00 900.00 194 452 0 0.000 5.373 2000.000 0.791
11 275.00 900.00 181 349 1 0.000 5.373 2000.000 0.791
12 300.00 900.00 141 315 1 0.000 5.373 2000.000 0.791
13 325.00 900.00 167 328 1 0.000 5.373 2000.000 0.791
14 350.00 900.00 201 326 3 0.000 5.373 2000.000 0.791
15 375.00 900.00 254 425 0 0.000 5.373 2000.000 0.791
16 400.00 900.00 354 499 0 0.000 5.373 2000.000 0.791
17 425.00 900.00 403 527 1 0.000 5.373 2000.000 0.791
18 450.00 900.00 370 507 1 0.000 5.373 2000.000 0.791
19 475.00 900.00 306 503 1 0.000 5.373 2000.000 0.791
20 500.00 900.00 253 426 0 0.000 5.373 2000.000 0.791
21 525.00 900.00 177 367 0 0.000 5.373 2000.000 0.791
22 550.00 900.00 177 287 2 0.000 5.373 2000.000 0.791
23 575.00 900.00 198 319 0 0.000 5.373 2000.000 0.791
24 600.00 900.00 208 394 0 0.000 5.373 2000.000 0.791
25 625.00 900.00 294 441 0 0.000 5.373 2000.000 0.791
26 650.00 900.00 382 522 1 0.000 5.373 2000.000 0.791
27 675.00 900.00 398 525 0 0.000 5.373 2000.000 0.791
28 700.00 900.00 317 470 1 0.000 5.373 2000.000 0.791
29 725.00 900.00 292 518 0 0.000 5.373 2000.000 0.791
30 750.00 900.00 197 437 0 0.000 5.373 2000.000 0.791
31 775.00 900.00 167 337 0 0.000 5.373 2000.000 0.791
32 800.00 900.00 160 283 2 0.000 5.373 2000.000 0.791
33 825.00 900.00 183 284 0 0.000 5.373 2000.000 0.791
34 850.00 900.00 205 349 0 0.000 5.373 2000.000 0.791
35 875.00 900.00 266 459 0 0.000 5.373 2000.000 0.791
36 900.00 900.00 381 498 1 0.000 5.373 2000.000 0.791
37 925.00 900.00 409 546 1 0.000 5.373 2000.000 0.791
38 950.00 900.00 393 495 1 0.000 5.373 2000.000 0.791
39 975.00 900.00 308 498 1 0.000 5.373 2000.000 0.791
