# BinNR microsec tot-time (s)  O-Beam H-beam AUX Ampl(V) f(Hz) phase(deg) chi(pos)
0 0.00 900.00 131 547 0 0.000 5.373 2000.000 -1.505
1 25.00 900.00 167 521 0 0.000 5.373 2000.000 -1.505
2 50.00 900.00 170 448 1 0.000 5.373 2000.000 -1.505
3 75.00 900.00 136 321 1 0.000 5.373 2000.000 -1.505
4 100.00 900.00 149 290 2 0.000 5.373 2000.000 -1.505
5 125.00 900.00 159 300 2 0.000 5.373 2000.000 -1.505
6 150.00 900.00 209 377 1 0.000 5.373 2000.000 -1.505
7 175.00 900.00 323 415 0 0.000 5.373 2000.000 -1.505
8 200.00 900.00 402 387 1 0.000 5.373 2000.000 -1.505
9 225.00 900.00 406 330 0 0.000 5.373 2000.000 -1.505
10 250.00 900.00 361 282 1 0.000 5.373 2000.000 -1.505
11 275.00 900.00 384 308 1 0.000 5.373 2000.000 -1.505
12 300.00 900.00 325 350 0 0.000 5.373 2000.000 -1.505
13 325.00 900.00 368 419 0 0.000 5.373 2000.000 -1.505
14 350.00 900.00 397 502 2 0.000 5.373 2000.000 -1.505
15 375.00 900.00 442 549 0 0.000 5.373 2000.000 -1.505
16 400.00 900.00 424 578 1 0.000 5.373 2000.000 -1.505
17 425.00 900.00 354 578 2 0.000 5.373 2000.000 -1.505
18 450.00 900.00 204 593 0 0.000 5.373 2000.000 -1.505
19 475.00 900.00 166 565 2 0.000 5.373 2000.000 -1.505
20 500.00 900.00 150 581 1 0.000 5.373 2000.000 -1.505
21 525.00 900.00 180 553 1 0.000 5.373 2000.000 -1.505
22 550.00 900.00 148 425 1 0.000 5.373 2000.000 -1.505
23 575.00 900.00 185 393 1 0.000 5.373 2000.000 -1.505
24 600.00 900.00 154 278 0 0.000 5.373 2000.000 -1.505
25 625.00 900.00 152 327 1 0.000 5.373 2000.000 -1.505
26 650.00 900.00 250 328 0 0.000 5.373 2000.000 -1.505
27 675.00 900.00 329 355 1 0.000 5.373 2000.000 -1.505
28 700.00 900.00 361 407 0 0.000 5.373 2000.000 -1.505
29 725.00 900.00 440 336 1 0.000 5.373 2000.000 -1.505
30 750.00 900.00 380 323 0 0.000 5.373 2000.000 -1.505
31 775.00 900.00 347 283 0 0.000 5.373 2000.000 -1.505
32 800.00 900.00 326 354 0 0.000 5.373 2000.000 -1.505
33 825.00 900.00 363 463 0 0.000 5.373 2000.000 -1.505
34 850.00 900.00 399 537 2 0.000 5.373 2000.000 -1.505
35 875.00 900.00 413 554 0 0.000 5.373 2000.000 -1.505
36 900.00 900.00 392 536 1 0.000 5.373 2000.000 -1.505
37 925.00 900.00 332 501 1 0.000 5.373 2000.000 -1.505
38 950.00 900.00 246 586 0 0.000 5.373 2000.000 -1.505
39 975.00 900.00 173 586 1 0.000 5.373 2000.000 -1.505
