# BinNR microsec tot-time (s)  O-Beam H-beam AUX Ampl(V) f(Hz) phase(deg) chi(pos)
0 0.00 900.00 141 569 0 0.000 5.373 2000.000 -1.373
1 25.00 900.00 148 507 1 0.000 5.373 2000.000 -1.373
2 50.00 900.00 159 381 1 0.000 5.373 2000.000 -1.373
3 75.00 900.00 138 292 0 0.000 5.373 2000.000 -1.373
4 100.00 900.00 160 320 0 0.000 5.373 2000.000 -1.373
5 125.00 900.00 216 348 0 0.000 5.373 2000.000 -1.373
6 150.00 900.00 286 446 0 0.000 5.373 2000.000 -1.373
7 175.00 900.00 389 437 1 0.000 5.373 2000.000 -1.373
8 200.00 900.00 408 429 0 0.000 5.373 2000.000 -1.373
9 225.00 900.00 387 402 1 0.000 5.373 2000.000 -1.373
10 250.00 900.00 355 326 1 0.000 5.373 2000.000 -1.373
11 275.00 900.00 287 287 1 0.000 5.373 2000.000 -1.373
12 300.00 900.00 274 315 0 0.000 5.373 2000.000 -1.373
13 325.00 900.00 283 385 0 0.000 5.373 2000.000 -1.373
14 350.00 900.00 387 508 0 0.000 5.373 2000.000 -1.373
15 375.00 900.00 368 548 0 0.000 5.373 2000.000 -1.373
16 400.00 900.00 390 584 0 0.000 5.373 2000.000 -1.373
17 425.00 900.00 420 552 2 0.000 5.373 2000.000 -1.373
18 450.00 900.00 300 560 2 0.000 5.373 2000.000 -1.373
19 475.00 900.00 214 562 1 0.000 5.373 2000.000 -1.373
20 500.00 900.00 155 549 0 0.000 5.373 2000.000 -1.373
21 525.00 900.00 143 454 1 0.000 5.373 2000.000 -1.373
22 550.00 900.00 137 375 1 0.000 5.373 2000.000 -1.373
23 575.00 900.00 129 276 1 0.000 5.373 2000.000 -1.373
24 600.00 900.00 134 312 1 0.000 5.373 2000.000 -1.373
25 625.00 900.00 202 350 0 0.000 5.373 2000.000 -1.373
26 650.00 900.00 288 409 0 0.000 5.373 2000.000 -1.373
27 675.00 900.00 394 456 1 0.000 5.373 2000.000 -1.373
28 700.00 900.00 452 456 0 0.000 5.373 2000.000 -1.373
29 725.00 900.00 395 385 0 0.000 5.373 2000.000 -1.373
30 750.00 900.00 338 368 1 0.000 5.373 2000.000 -1.373
31 775.00 900.00 259 329 0 0.000 5.373 2000.000 -1.373
32 800.00 900.00 277 313 0 0.000 5.373 2000.000 -1.373
33 825.00 900.00 278 390 0 0.000 5.373 2000.000 -1.373
34 850.00 900.00 326 484 0 0.000 5.373 2000.000 -1.373
35 875.00 900.00 392 593 0 0.000 5.373 2000.000 -1.373
36 900.00 900.00 448 564 1 0.000 5.373 2000.000 -1.373
37 925.00 900.00 364 554 1 0.000 5.373 2000.000 -1.373
38 950.00 900.00 304 543 0 0.000 5.373 2000.000 -1.373
39 975.00 900.00 226 576 0 0.000 5.373 2000.000 -1.373
