# BinNR microsec tot-time (s)  O-Beam H-beam AUX Ampl(V) f(Hz) phase(deg) chi(pos)
0 0.00 900.00 392 306 0 0.000 5.373 2000.000 -0.802
1 25.00 900.00 349 329 2 0.000 5.373 2000.000 -0.802
2 50.00 900.00 336 310 4 0.000 5.373 2000.000 -0.802
3 75.00 900.00 325 402 1 0.000 5.373 2000.000 -0.802
4 100.00 900.00 354 514 0 0.000 5.373 2000.000 -0.802
5 125.00 900.00 411 531 1 0.000 5.373 2000.000 -0.802
6 150.00 900.00 406 598 0 0.000 5.373 2000.000 -0.802
7 175.00 900.00 360 565 1 0.000 5.373 2000.000 -0.802
8 200.00 900.00 243 546 1 0.000 5.373 2000.000 -0.802
9 225.00 900.00 164 608 0 0.000 5.373 2000.000 -0.802
10 250.00 900.00 144 557 1 0.000 5.373 2000.000 -0.802
11 275.00 900.00 161 508 0 0.000 5.373 2000.000 -0.802
12 300.00 900.00 131 404 1 0.000 5.373 2000.000 -0.802
13 325.00 900.00 136 274 2 0.000 5.373 2000.000 -0.802
14 350.00 900.00 139 309 1 0.000 5.373 2000.000 -0.802
15 375.00 900.00 161 310 1 0.000 5.373 2000.000 -0.802
16 400.00 900.00 211 337 0 0.000 5.373 2000.000 -0.802
17 425.00 900.00 322 394 0 0.000 5.373 2000.000 -0.802
18 450.00 900.00 414 382 0 0.000 5.373 2000.000 -0.802
19 475.00 900.00 399 359 2 0.000 5.373 2000.000 -0.802
20 500.00 900.00 389 316 1 0.000 5.373 2000.000 -0.802
21 525.00 900.00 343 283 0 0.000 5.373 2000.000 -0.802
22 550.00 900.00 349 364 0 0.000 5.373 2000.000 -0.802
23 575.00 900.00 309 425 0 0.000 5.373 2000.000 -0.802
24 600.00 900.00 357 529 0 0.000 5.373 2000.000 -0.802
25 625.00 900.00 391 582 0 0.000 5.373 2000.000 -0.802
26 650.00 900.00 444 550 1 0.000 5.373 2000.000 -0.802
27 675.00 900.00 333 578 0 0.000 5.373 2000.000 -0.802
28 700.00 900.00 218 588 1 0.000 5.373 2000.000 -0.802
29 725.00 900.00 197 567 0 0.000 5.373 2000.000 -0.802
30 750.00 900.00 130 575 0 0.000 5.373 2000.000 -0.802
31 775.00 900.00 174 512 2 0.000 5.373 2000.000 -0.802
32 800.00 900.00 142 384 0 0.000 5.373 2000.000 -0.802
33 825.00 900.00 142 341 0 0.000 5.373 2000.000 -0.802
34 850.00 900.00 165 310 0 0.000 5.373 2000.000 -0.802
35 875.00 900.00 165 335 0 0.000 5.373 2000.000 -0.802
36 900.00 900.00 198 348 0 0.000 5.373 2000.000 -0.802
37 925.00 900.00 354 360 1 0.000 5.373 2000.000 -0.802
38 950.00 900.00 411 407 3 0.000 5.373 2000.000 -0.802
39 975.00 900.00 430 354 1 0.000 5.373 2000.000 -0.802
