# BinNR microsec tot-time (s)  O-Beam H-beam AUX Ampl(V) f(Hz) phase(deg) chi(pos)
0 0.00 900.00 331 425 3 0.000 5.373 2000.000 -0.231
1 25.00 900.00 335 453 3 0.000 5.373 2000.000 -0.231
2 50.00 900.00 344 462 2 0.000 5.373 2000.000 -0.231
3 75.00 900.00 356 427 2 0.000 5.373 2000.000 -0.231
4 100.00 900.00 317 459 1 0.000 5.373 2000.000 -0.231
5 125.00 900.00 339 437 1 0.000 5.373 2000.000 -0.231
6 150.00 900.00 304 401 0 0.000 5.373 2000.000 -0.231
7 175.00 900.00 321 383 2 0.000 5.373 2000.000 -0.231
8 200.00 900.00 307 423 0 0.000 5.373 2000.000 -0.231
9 225.00 900.00 311 442 3 0.000 5.373 2000.000 -0.231
10 250.00 900.00 362 418 3 0.000 5.373 2000.000 -0.231
11 275.00 900.00 364 452 3 0.000 5.373 2000.000 -0.231
12 300.00 900.00 368 406 1 0.000 5.373 2000.000 -0.231
13 325.00 900.00 353 444 2 0.000 5.373 2000.000 -0.231
14 350.00 900.00 335 439 4 0.000 5.373 2000.000 -0.231
15 375.00 900.00 336 464 2 0.000 5.373 2000.000 -0.231
16 400.00 900.00 355 417 3 0.000 5.373 2000.000 -0.231
17 425.00 900.00 309 375 1 0.000 5.373 2000.000 -0.231
18 450.00 900.00 362 427 1 0.000 5.373 2000.000 -0.231
19 475.00 900.00 358 383 4 0.000 5.373 2000.000 -0.231
20 500.00 900.00 343 443 4 0.000 5.373 2000.000 -0.231
21 525.00 900.00 355 434 4 0.000 5.373 2000.000 -0.231
22 550.00 900.00 348 452 3 0.000 5.373 2000.000 -0.231
23 575.00 900.00 322 465 2 0.000 5.373 2000.000 -0.231
24 600.00 900.00 315 427 0 0.000 5.373 2000.000 -0.231
25 625.00 900.00 289 424 1 0.000 5.373 2000.000 -0.231
26 650.00 900.00 280 437 2 0.000 5.373 2000.000 -0.231
27 675.00 900.00 316 400 1 0.000 5.373 2000.000 -0.231
28 700.00 900.00 336 416 2 0.000 5.373 2000.000 -0.231
29 725.00 900.00 346 402 1 0.000 5.373 2000.000 -0.231
30 750.00 900.00 332 413 2 0.000 5.373 2000.000 -0.231
31 775.00 900.00 335 465 2 0.000 5.373 2000.000 -0.231
32 800.00 900.00 362 456 2 0.000 5.373 2000.000 -0.231
33 825.00 900.00 324 440 2 0.000 5.373 2000.000 -0.231
34 850.00 900.00 365 424 2 0.000 5.373 2000.000 -0.231
35 875.00 900.00 343 432 2 0.000 5.373 2000.000 -0.231
36 900.00 900.00 313 408 1 0.000 5.373 2000.000 -0.231
37 925.00 900.00 317 427 1 0.000 5.373 2000.000 -0.231
38 950.00 900.00 342 446 2 0.000 5.373 2000.000 -0.231
39 975.00 900.00 291 439 1 0.000 5.373 2000.000 -0.231
