# BinNR microsec tot-time (s)  O-Beam H-beam AUX Ampl(V) f(Hz) phase(deg) chi(pos)
0 0.00 900.00 296 424 2 0.000 5.373 2000.000 -1.088
1 25.00 900.00 339 370 1 0.000 5.373 2000.000 -1.088
2 50.00 900.00 327 429 1 0.000 5.373 2000.000 -1.088
3 75.00 900.00 337 426 2 0.000 5.373 2000.000 -1.088
4 100.00 900.00 338 422 2 0.000 5.373 2000.000 -1.088
5 125.00 900.00 352 472 4 0.000 5.373 2000.000 -1.088
6 150.00 900.00 309 492 3 0.000 5.373 2000.000 -1.088
7 175.00 900.00 285 445 3 0.000 5.373 2000.000 -1.088
8 200.00 900.00 314 447 3 0.000 5.373 2000.000 -1.088
9 225.00 900.00 311 473 3 0.000 5.373 2000.000 -1.088
10 250.00 900.00 255 475 1 0.000 5.373 2000.000 -1.088
11 275.00 900.00 310 447 0 0.000 5.373 2000.000 -1.088
12 300.00 900.00 289 438 2 0.000 5.373 2000.000 -1.088
13 325.00 900.00 312 447 2 0.000 5.373 2000.000 -1.088
14 350.00 900.00 289 397 0 0.000 5.373 2000.000 -1.088
15 375.00 900.00 277 413 2 0.000 5.373 2000.000 -1.088
16 400.00 900.00 291 393 3 0.000 5.373 2000.000 -1.088
17 425.00 900.00 326 437 3 0.000 5.373 2000.000 -1.088
18 450.00 900.00 321 430 3 0.000 5.373 2000.000 -1.088
19 475.00 900.00 302 394 2 0.000 5.373 2000.000 -1.088
20 500.00 900.00 343 416 1 0.000 5.373 2000.000 -1.088
21 525.00 900.00 308 382 0 0.000 5.373 2000.000 -1.088
22 550.00 900.00 314 423 2 0.000 5.373 2000.000 -1.088
23 575.00 900.00 302 436 2 0.000 5.373 2000.000 -1.088
24 600.00 900.00 319 448 1 0.000 5.373 2000.000 -1.088
25 625.00 900.00 328 446 1 0.000 5.373 2000.000 -1.088
26 650.00 900.00 310 472 2 0.000 5.373 2000.000 -1.088
27 675.00 900.00 318 445 0 0.000 5.373 2000.000 -1.088
28 700.00 900.00 307 434 1 0.000 5.373 2000.000 -1.088
29 725.00 900.00 284 432 0 0.000 5.373 2000.000 -1.088
30 750.00 900.00 303 441 3 0.000 5.373 2000.000 -1.088
31 775.00 900.00 286 474 2 0.000 5.373 2000.000 -1.088
32 800.00 900.00 284 410 3 0.000 5.373 2000.000 -1.088
33 825.00 900.00 279 415 4 0.000 5.373 2000.000 -1.088
34 850.00 900.00 282 416 1 0.000 5.373 2000.000 -1.088
35 875.00 900.00 270 438 2 0.000 5.373 2000.000 -1.088
36 900.00 900.00 328 391 0 0.000 5.373 2000.000 -1.088
37 925.00 900.00 308 423 4 0.000 5.373 2000.000 -1.088
38 950.00 900.00 332 396 1 0.000 5.373 2000.000 -1.088
39 975.00 900.00 293 426 1 0.000 5.373 2000.000 -1.088
