# BinNR microsec tot-time (s)  O-Beam H-beam AUX Ampl(V) f(Hz) phase(deg) chi(pos)
0 0.00 900.00 247 640 3 0.000 3.343 2000.000 1.077
1 25.00 900.00 313 673 5 0.000 3.343 2000.000 1.077
2 50.00 900.00 368 681 1 0.000 3.343 2000.000 1.077
3 75.00 900.00 330 590 1 0.000 3.343 2000.000 1.077
4 100.00 900.00 271 475 4 0.000 3.343 2000.000 1.077
5 125.00 900.00 171 379 2 0.000 3.343 2000.000 1.077
6 150.00 900.00 112 301 4 0.000 3.343 2000.000 1.077
7 175.00 900.00 119 314 2 0.000 3.343 2000.000 1.077
8 200.00 900.00 277 321 2 0.000 3.343 2000.000 1.077
9 225.00 900.00 364 302 1 0.000 3.343 2000.000 1.077
10 250.00 900.00 449 375 0 0.000 3.343 2000.000 1.077
11 275.00 900.00 541 479 1 0.000 3.343 2000.000 1.077
12 300.00 900.00 533 560 5 0.000 3.343 2000.000 1.077
13 325.00 900.00 526 729 1 0.000 3.343 2000.000 1.077
14 350.00 900.00 522 706 2 0.000 3.343 2000.000 1.077
15 375.00 900.00 400 622 3 0.000 3.343 2000.000 1.077
16 400.00 900.00 304 479 1 0.000 3.343 2000.000 1.077
17 425.00 900.00 186 475 2 0.000 3.343 2000.000 1.077
18 450.00 900.00 124 480 3 0.000 3.343 2000.000 1.077
19 475.00 900.00 160 493 2 0.000 3.343 2000.000 1.077
20 500.00 900.00 274 578 3 0.000 3.343 2000.000 1.077
21 525.00 900.00 327 693 2 0.000 3.343 2000.000 1.077
22 550.00 900.00 368 718 4 0.000 3.343 2000.000 1.077
23 575.00 900.00 386 635 2 0.000 3.343 2000.000 1.077
24 600.00 900.00 265 501 4 0.000 3.343 2000.000 1.077
25 625.00 900.00 203 375 0 0.000 3.343 2000.000 1.077
26 650.00 900.00 100 338 6 0.000 3.343 2000.000 1.077
27 675.00 900.00 143 309 3 0.000 3.343 2000.000 1.077
28 700.00 900.00 298 305 0 0.000 3.343 2000.000 1.077
29 725.00 900.00 362 338 5 0.000 3.343 2000.000 1.077
30 750.00 900.00 508 361 2 0.000 3.343 2000.000 1.077
31 775.00 900.00 520 470 3 0.000 3.343 2000.000 1.077
32 800.00 900.00 492 578 2 0.000 3.343 2000.000 1.077
33 825.00 900.00 467 727 0 0.000 3.343 2000.000 1.077
34 850.00 900.00 464 723 2 0.000 3.343 2000.000 1.077
35 875.00 900.00 409 557 5 0.000 3.343 2000.000 1.077
36 900.00 900.00 270 515 4 0.000 3.343 2000.000 1.077
37 925.00 900.00 176 465 3 0.000 3.343 2000.000 1.077
38 950.00 900.00 136 476 2 0.000 3.343 2000.000 1.077
39 975.00 900.00 161 510 5 0.000 3.343 2000.000 1.077
