# BinNR microsec tot-time (s)  O-Beam H-beam AUX Ampl(V) f(Hz) phase(deg) chi(pos)
0 0.00 900.00 137 695 1 0.000 3.343 2000.000 -1.373
1 25.00 900.00 153 695 1 0.000 3.343 2000.000 -1.373
2 50.00 900.00 175 580 2 0.000 3.343 2000.000 -1.373
3 75.00 900.00 139 455 2 0.000 3.343 2000.000 -1.373
4 100.00 900.00 129 333 1 0.000 3.343 2000.000 -1.373
5 125.00 900.00 108 343 2 0.000 3.343 2000.000 -1.373
6 150.00 900.00 186 330 0 0.000 3.343 2000.000 -1.373
7 175.00 900.00 320 377 2 0.000 3.343 2000.000 -1.373
8 200.00 900.00 456 361 4 0.000 3.343 2000.000 -1.373
9 225.00 900.00 478 334 2 0.000 3.343 2000.000 -1.373
10 250.00 900.00 503 314 2 0.000 3.343 2000.000 -1.373
11 275.00 900.00 459 333 4 0.000 3.343 2000.000 -1.373
12 300.00 900.00 394 428 3 0.000 3.343 2000.000 -1.373
13 325.00 900.00 491 570 0 0.000 3.343 2000.000 -1.373
14 350.00 900.00 486 632 1 0.000 3.343 2000.000 -1.373
15 375.00 900.00 471 678 0 0.000 3.343 2000.000 -1.373
16 400.00 900.00 451 709 4 0.000 3.343 2000.000 -1.373
17 425.00 900.00 322 622 1 0.000 3.343 2000.000 -1.373
18 450.00 900.00 202 653 2 0.000 3.343 2000.000 -1.373
19 475.00 900.00 116 731 3 0.000 3.343 2000.000 -1.373
20 500.00 900.00 109 757 2 0.000 3.343 2000.000 -1.373
21 525.00 900.00 144 714 4 0.000 3.343 2000.000 -1.373
22 550.00 900.00 149 554 2 0.000 3.343 2000.000 -1.373
23 575.00 900.00 174 401 3 0.000 3.343 2000.000 -1.373
24 600.00 900.00 123 320 1 0.000 3.343 2000.000 -1.373
25 625.00 900.00 106 294 5 0.000 3.343 2000.000 -1.373
26 650.00 900.00 165 341 3 0.000 3.343 2000.000 -1.373
27 675.00 900.00 332 395 1 0.000 3.343 2000.000 -1.373
28 700.00 900.00 467 397 2 0.000 3.343 2000.000 -1.373
29 725.00 900.00 519 316 3 0.000 3.343 2000.000 -1.373
30 750.00 900.00 488 326 1 0.000 3.343 2000.000 -1.373
31 775.00 900.00 481 325 2 0.000 3.343 2000.000 -1.373
32 800.00 900.00 433 427 3 0.000 3.343 2000.000 -1.373
33 825.00 900.00 435 538 2 0.000 3.343 2000.000 -1.373
34 850.00 900.00 473 674 2 0.000 3.343 2000.000 -1.373
35 875.00 900.00 495 721 2 0.000 3.343 2000.000 -1.373
36 900.00 900.00 439 736 2 0.000 3.343 2000.000 -1.373
37 925.00 900.00 329 689 5 0.000 3.343 2000.000 -1.373
38 950.00 900.00 180 624 0 0.000 3.343 2000.000 -1.373
39 975.00 900.00 119 653 1 0.000 3.343 2000.000 -1.373
