# BinNR microsec tot-time (s)  O-Beam AUX Ampl(V) f(Hz) phase(deg) chi(pos)
0 0.00 1500.01 163 493 1.000 10000.000 0.000 -0.989
1 3.00 1500.01 297 917 1.000 10000.000 0.000 -0.989
2 6.00 1500.01 303 1016 1.000 10000.000 0.000 -0.989
3 9.00 1500.01 309 995 1.000 10000.000 0.000 -0.989
4 12.00 1500.01 316 1146 1.000 10000.000 0.000 -0.989
5 15.00 1500.01 348 1053 1.000 10000.000 0.000 -0.989
6 18.00 1500.01 343 1154 1.000 10000.000 0.000 -0.989
7 21.00 1500.01 365 1149 1.000 10000.000 0.000 -0.989
8 24.00 1500.01 379 1173 1.000 10000.000 0.000 -0.989
9 27.00 1500.01 349 1255 1.000 10000.000 0.000 -0.989
10 30.00 1500.01 375 1225 1.000 10000.000 0.000 -0.989
11 33.00 1500.01 360 1283 1.000 10000.000 0.000 -0.989
12 36.00 1500.01 397 1221 1.000 10000.000 0.000 -0.989
13 39.00 1500.01 386 1238 1.000 10000.000 0.000 -0.989
14 42.00 1500.01 367 1228 1.000 10000.000 0.000 -0.989
15 45.00 1500.01 391 1235 1.000 10000.000 0.000 -0.989
16 48.00 1500.01 402 1266 1.000 10000.000 0.000 -0.989
17 51.00 1500.01 373 1218 1.000 10000.000 0.000 -0.989
18 54.00 1500.01 391 1275 1.000 10000.000 0.000 -0.989
19 57.00 1500.01 360 1191 1.000 10000.000 0.000 -0.989
20 60.00 1500.01 348 1164 1.000 10000.000 0.000 -0.989
21 63.00 1500.01 404 1146 1.000 10000.000 0.000 -0.989
22 66.00 1500.01 361 1144 1.000 10000.000 0.000 -0.989
23 69.00 1500.01 306 1085 1.000 10000.000 0.000 -0.989
24 72.00 1500.01 303 1091 1.000 10000.000 0.000 -0.989
25 75.00 1500.01 303 1060 1.000 10000.000 0.000 -0.989
26 78.00 1500.01 329 1039 1.000 10000.000 0.000 -0.989
27 81.00 1500.01 260 1015 1.000 10000.000 0.000 -0.989
28 84.00 1500.01 315 1024 1.000 10000.000 0.000 -0.989
29 87.00 1500.01 266 943 1.000 10000.000 0.000 -0.989
30 90.00 1500.01 267 963 1.000 10000.000 0.000 -0.989
31 93.00 1500.01 290 924 1.000 10000.000 0.000 -0.989
32 96.00 1500.01 261 938 1.000 10000.000 0.000 -0.989
33 99.00 1500.01 314 930 1.000 10000.000 0.000 -0.989
34 102.00 1500.01 326 923 1.000 10000.000 0.000 -0.989
35 105.00 1500.01 330 960 1.000 10000.000 0.000 -0.989
36 108.00 1500.01 319 1011 1.000 10000.000 0.000 -0.989
37 111.00 1500.01 324 1030 1.000 10000.000 0.000 -0.989
38 114.00 1500.01 306 1053 1.000 10000.000 0.000 -0.989
39 117.00 1500.01 301 1112 1.000 10000.000 0.000 -0.989
40 120.00 1500.01 327 1052 1.000 10000.000 0.000 -0.989
41 123.00 1500.01 363 1060 1.000 10000.000 0.000 -0.989
42 126.00 1500.01 393 1176 1.000 10000.000 0.000 -0.989
43 129.00 1500.01 403 1142 1.000 10000.000 0.000 -0.989
44 132.00 1500.01 348 1243 1.000 10000.000 0.000 -0.989
45 135.00 1500.01 384 1222 1.000 10000.000 0.000 -0.989
46 138.00 1500.01 398 1222 1.000 10000.000 0.000 -0.989
47 141.00 1500.01 379 1253 1.000 10000.000 0.000 -0.989
48 144.00 1500.01 408 1214 1.000 10000.000 0.000 -0.989
49 147.00 1500.01 397 1247 1.000 10000.000 0.000 -0.989
50 150.00 1500.01 381 1300 1.000 10000.000 0.000 -0.989
51 153.00 1500.01 348 1206 1.000 10000.000 0.000 -0.989
52 156.00 1500.01 360 1247 1.000 10000.000 0.000 -0.989
53 159.00 1500.01 380 1222 1.000 10000.000 0.000 -0.989
54 162.00 1500.01 350 1152 1.000 10000.000 0.000 -0.989
55 165.00 1500.01 360 1173 1.000 10000.000 0.000 -0.989
56 168.00 1500.01 383 1209 1.000 10000.000 0.000 -0.989
57 171.00 1500.01 333 1080 1.000 10000.000 0.000 -0.989
58 174.00 1500.01 300 1129 1.000 10000.000 0.000 -0.989
59 177.00 1500.01 308 1036 1.000 10000.000 0.000 -0.989
60 180.00 1500.01 309 988 1.000 10000.000 0.000 -0.989
61 183.00 1500.01 311 952 1.000 10000.000 0.000 -0.989
62 186.00 1500.01 302 954 1.000 10000.000 0.000 -0.989
63 189.00 1500.01 296 927 1.000 10000.000 0.000 -0.989
64 192.00 1500.01 296 923 1.000 10000.000 0.000 -0.989
65 195.00 1500.01 264 936 1.000 10000.000 0.000 -0.989
66 198.00 1500.01 291 935 1.000 10000.000 0.000 -0.989
67 201.00 1500.01 268 991 1.000 10000.000 0.000 -0.989
68 204.00 1500.01 290 938 1.000 10000.000 0.000 -0.989
69 207.00 1500.01 277 918 1.000 10000.000 0.000 -0.989
70 210.00 1500.01 290 987 1.000 10000.000 0.000 -0.989
71 213.00 1500.01 302 1017 1.000 10000.000 0.000 -0.989
72 216.00 1500.01 316 1045 1.000 10000.000 0.000 -0.989
73 219.00 1500.01 370 1068 1.000 10000.000 0.000 -0.989
74 222.00 1500.01 370 1119 1.000 10000.000 0.000 -0.989
75 225.00 1500.01 377 1135 1.000 10000.000 0.000 -0.989
76 228.00 1500.01 368 1218 1.000 10000.000 0.000 -0.989
77 231.00 1500.01 360 1236 1.000 10000.000 0.000 -0.989
78 234.00 1500.01 372 1247 1.000 10000.000 0.000 -0.989
79 237.00 1500.01 368 1213 1.000 10000.000 0.000 -0.989
80 240.00 1500.01 371 1240 1.000 10000.000 0.000 -0.989
81 243.00 1500.01 353 1294 1.000 10000.000 0.000 -0.989
82 246.00 1500.01 380 1284 1.000 10000.000 0.000 -0.989
83 249.00 1500.01 389 1258 1.000 10000.000 0.000 -0.989
84 252.00 1500.01 371 1265 1.000 10000.000 0.000 -0.989
85 255.00 1500.01 386 1183 1.000 10000.000 0.000 -0.989
86 258.00 1500.01 394 1213 1.000 10000.000 0.000 -0.989
87 261.00 1500.01 354 1151 1.000 10000.000 0.000 -0.989
88 264.00 1500.01 356 1179 1.000 10000.000 0.000 -0.989
89 267.00 1500.01 337 1167 1.000 10000.000 0.000 -0.989
90 270.00 1500.01 347 1158 1.000 10000.000 0.000 -0.989
91 273.00 1500.01 333 1064 1.000 10000.000 0.000 -0.989
92 276.00 1500.01 313 958 1.000 10000.000 0.000 -0.989
93 279.00 1500.01 282 997 1.000 10000.000 0.000 -0.989
94 282.00 1500.01 297 990 1.000 10000.000 0.000 -0.989
95 285.00 1500.01 292 927 1.000 10000.000 0.000 -0.989
96 288.00 1500.01 295 939 1.000 10000.000 0.000 -0.989
97 291.00 1500.01 278 962 1.000 10000.000 0.000 -0.989
98 294.00 1500.01 302 927 1.000 10000.000 0.000 -0.989
99 297.00 1500.01 298 902 1.000 10000.000 0.000 -0.989
100 300.00 1500.01 299 923 1.000 10000.000 0.000 -0.989
101 303.00 1500.01 325 973 1.000 10000.000 0.000 -0.989
102 306.00 1500.01 322 1026 1.000 10000.000 0.000 -0.989
103 309.00 1500.01 283 1039 1.000 10000.000 0.000 -0.989
104 312.00 1500.01 329 1071 1.000 10000.000 0.000 -0.989
105 315.00 1500.01 337 1043 1.000 10000.000 0.000 -0.989
106 318.00 1500.01 346 1084 1.000 10000.000 0.000 -0.989
107 321.00 1500.01 307 1167 1.000 10000.000 0.000 -0.989
108 324.00 1500.01 353 1137 1.000 10000.000 0.000 -0.989
109 327.00 1500.01 391 1111 1.000 10000.000 0.000 -0.989
110 330.00 1500.01 356 1200 1.000 10000.000 0.000 -0.989
111 333.00 1500.01 345 1223 1.000 10000.000 0.000 -0.989
112 336.00 1500.01 367 1268 1.000 10000.000 0.000 -0.989
113 339.00 1500.01 364 1236 1.000 10000.000 0.000 -0.989
114 342.00 1500.01 391 1269 1.000 10000.000 0.000 -0.989
115 345.00 1500.01 407 1209 1.000 10000.000 0.000 -0.989
116 348.00 1500.01 417 1241 1.000 10000.000 0.000 -0.989
117 351.00 1500.01 381 1285 1.000 10000.000 0.000 -0.989
118 354.00 1500.01 353 1205 1.000 10000.000 0.000 -0.989
119 357.00 1500.01 373 1179 1.000 10000.000 0.000 -0.989
120 360.00 1500.01 394 1246 1.000 10000.000 0.000 -0.989
121 363.00 1500.01 379 1194 1.000 10000.000 0.000 -0.989
122 366.00 1500.01 363 1166 1.000 10000.000 0.000 -0.989
123 369.00 1500.01 348 1151 1.000 10000.000 0.000 -0.989
124 372.00 1500.01 333 1083 1.000 10000.000 0.000 -0.989
125 375.00 1500.01 339 1104 1.000 10000.000 0.000 -0.989
126 378.00 1500.01 344 1022 1.000 10000.000 0.000 -0.989
127 381.00 1500.01 338 967 1.000 10000.000 0.000 -0.989
128 384.00 1500.01 318 1014 1.000 10000.000 0.000 -0.989
129 387.00 1500.01 297 942 1.000 10000.000 0.000 -0.989
130 390.00 1500.01 299 960 1.000 10000.000 0.000 -0.989
131 393.00 1500.01 285 944 1.000 10000.000 0.000 -0.989
132 396.00 1500.01 279 941 1.000 10000.000 0.000 -0.989
133 399.00 1500.01 251 909 1.000 10000.000 0.000 -0.989
134 402.00 1500.01 311 976 1.000 10000.000 0.000 -0.989
