# BinNR microsec tot-time (s)  O-Beam AUX Ampl(V) f(Hz) phase(deg) chi(pos)
0 0.00 1500.01 51 93 1.000 10000.000 0.000 -1.505
1 3.00 1500.01 88 187 1.000 10000.000 0.000 -1.505
2 6.00 1500.01 119 194 1.000 10000.000 0.000 -1.505
3 9.00 1500.01 122 214 1.000 10000.000 0.000 -1.505
4 12.00 1500.01 109 226 1.000 10000.000 0.000 -1.505
5 15.00 1500.01 114 239 1.000 10000.000 0.000 -1.505
6 18.00 1500.01 113 266 1.000 10000.000 0.000 -1.505
7 21.00 1500.01 128 269 1.000 10000.000 0.000 -1.505
8 24.00 1500.01 128 329 1.000 10000.000 0.000 -1.505
9 27.00 1500.01 120 294 1.000 10000.000 0.000 -1.505
10 30.00 1500.01 143 367 1.000 10000.000 0.000 -1.505
11 33.00 1500.01 120 380 1.000 10000.000 0.000 -1.505
12 36.00 1500.01 136 400 1.000 10000.000 0.000 -1.505
13 39.00 1500.01 142 353 1.000 10000.000 0.000 -1.505
14 42.00 1500.01 130 375 1.000 10000.000 0.000 -1.505
15 45.00 1500.01 154 320 1.000 10000.000 0.000 -1.505
16 48.00 1500.01 146 365 1.000 10000.000 0.000 -1.505
17 51.00 1500.01 137 392 1.000 10000.000 0.000 -1.505
18 54.00 1500.01 144 378 1.000 10000.000 0.000 -1.505
19 57.00 1500.01 107 348 1.000 10000.000 0.000 -1.505
20 60.00 1500.01 125 332 1.000 10000.000 0.000 -1.505
21 63.00 1500.01 113 325 1.000 10000.000 0.000 -1.505
22 66.00 1500.01 118 263 1.000 10000.000 0.000 -1.505
23 69.00 1500.01 107 255 1.000 10000.000 0.000 -1.505
24 72.00 1500.01 104 253 1.000 10000.000 0.000 -1.505
25 75.00 1500.01 115 227 1.000 10000.000 0.000 -1.505
26 78.00 1500.01 110 214 1.000 10000.000 0.000 -1.505
27 81.00 1500.01 111 208 1.000 10000.000 0.000 -1.505
28 84.00 1500.01 99 178 1.000 10000.000 0.000 -1.505
29 87.00 1500.01 113 154 1.000 10000.000 0.000 -1.505
30 90.00 1500.01 108 171 1.000 10000.000 0.000 -1.505
31 93.00 1500.01 103 175 1.000 10000.000 0.000 -1.505
32 96.00 1500.01 102 175 1.000 10000.000 0.000 -1.505
33 99.00 1500.01 117 186 1.000 10000.000 0.000 -1.505
34 102.00 1500.01 120 146 1.000 10000.000 0.000 -1.505
35 105.00 1500.01 93 178 1.000 10000.000 0.000 -1.505
36 108.00 1500.01 103 211 1.000 10000.000 0.000 -1.505
37 111.00 1500.01 113 183 1.000 10000.000 0.000 -1.505
38 114.00 1500.01 114 200 1.000 10000.000 0.000 -1.505
39 117.00 1500.01 100 218 1.000 10000.000 0.000 -1.505
40 120.00 1500.01 124 270 1.000 10000.000 0.000 -1.505
41 123.00 1500.01 149 283 1.000 10000.000 0.000 -1.505
42 126.00 1500.01 142 298 1.000 10000.000 0.000 -1.505
43 129.00 1500.01 130 362 1.000 10000.000 0.000 -1.505
44 132.00 1500.01 128 320 1.000 10000.000 0.000 -1.505
45 135.00 1500.01 114 370 1.000 10000.000 0.000 -1.505
46 138.00 1500.01 127 355 1.000 10000.000 0.000 -1.505
47 141.00 1500.01 141 383 1.000 10000.000 0.000 -1.505
48 144.00 1500.01 156 384 1.000 10000.000 0.000 -1.505
49 147.00 1500.01 138 402 1.000 10000.000 0.000 -1.505
50 150.00 1500.01 139 374 1.000 10000.000 0.000 -1.505
51 153.00 1500.01 115 390 1.000 10000.000 0.000 -1.505
52 156.00 1500.01 113 338 1.000 10000.000 0.000 -1.505
53 159.00 1500.01 138 349 1.000 10000.000 0.000 -1.505
54 162.00 1500.01 106 375 1.000 10000.000 0.000 -1.505
55 165.00 1500.01 97 297 1.000 10000.000 0.000 -1.505
56 168.00 1500.01 117 281 1.000 10000.000 0.000 -1.505
57 171.00 1500.01 116 260 1.000 10000.000 0.000 -1.505
58 174.00 1500.01 106 232 1.000 10000.000 0.000 -1.505
59 177.00 1500.01 103 210 1.000 10000.000 0.000 -1.505
60 180.00 1500.01 94 206 1.000 10000.000 0.000 -1.505
61 183.00 1500.01 122 176 1.000 10000.000 0.000 -1.505
62 186.00 1500.01 96 189 1.000 10000.000 0.000 -1.505
63 189.00 1500.01 106 177 1.000 10000.000 0.000 -1.505
64 192.00 1500.01 119 163 1.000 10000.000 0.000 -1.505
65 195.00 1500.01 108 153 1.000 10000.000 0.000 -1.505
66 198.00 1500.01 116 186 1.000 10000.000 0.000 -1.505
67 201.00 1500.01 108 180 1.000 10000.000 0.000 -1.505
68 204.00 1500.01 105 198 1.000 10000.000 0.000 -1.505
69 207.00 1500.01 97 170 1.000 10000.000 0.000 -1.505
70 210.00 1500.01 104 205 1.000 10000.000 0.000 -1.505
71 213.00 1500.01 136 207 1.000 10000.000 0.000 -1.505
72 216.00 1500.01 117 202 1.000 10000.000 0.000 -1.505
73 219.00 1500.01 104 256 1.000 10000.000 0.000 -1.505
74 222.00 1500.01 143 271 1.000 10000.000 0.000 -1.505
75 225.00 1500.01 121 295 1.000 10000.000 0.000 -1.505
76 228.00 1500.01 132 342 1.000 10000.000 0.000 -1.505
77 231.00 1500.01 117 330 1.000 10000.000 0.000 -1.505
78 234.00 1500.01 133 400 1.000 10000.000 0.000 -1.505
79 237.00 1500.01 129 352 1.000 10000.000 0.000 -1.505
80 240.00 1500.01 127 427 1.000 10000.000 0.000 -1.505
81 243.00 1500.01 132 425 1.000 10000.000 0.000 -1.505
82 246.00 1500.01 131 412 1.000 10000.000 0.000 -1.505
83 249.00 1500.01 113 359 1.000 10000.000 0.000 -1.505
84 252.00 1500.01 129 410 1.000 10000.000 0.000 -1.505
85 255.00 1500.01 131 364 1.000 10000.000 0.000 -1.505
86 258.00 1500.01 129 389 1.000 10000.000 0.000 -1.505
87 261.00 1500.01 96 340 1.000 10000.000 0.000 -1.505
88 264.00 1500.01 122 307 1.000 10000.000 0.000 -1.505
89 267.00 1500.01 116 265 1.000 10000.000 0.000 -1.505
90 270.00 1500.01 105 251 1.000 10000.000 0.000 -1.505
91 273.00 1500.01 116 229 1.000 10000.000 0.000 -1.505
92 276.00 1500.01 98 206 1.000 10000.000 0.000 -1.505
93 279.00 1500.01 101 223 1.000 10000.000 0.000 -1.505
94 282.00 1500.01 90 190 1.000 10000.000 0.000 -1.505
95 285.00 1500.01 114 175 1.000 10000.000 0.000 -1.505
96 288.00 1500.01 108 172 1.000 10000.000 0.000 -1.505
97 291.00 1500.01 110 182 1.000 10000.000 0.000 -1.505
98 294.00 1500.01 88 179 1.000 10000.000 0.000 -1.505
99 297.00 1500.01 98 179 1.000 10000.000 0.000 -1.505
100 300.00 1500.01 115 181 1.000 10000.000 0.000 -1.505
101 303.00 1500.01 120 169 1.000 10000.000 0.000 -1.505
102 306.00 1500.01 130 172 1.000 10000.000 0.000 -1.505
103 309.00 1500.01 98 175 1.000 10000.000 0.000 -1.505
104 312.00 1500.01 121 191 1.000 10000.000 0.000 -1.505
105 315.00 1500.01 109 222 1.000 10000.000 0.000 -1.505
106 318.00 1500.01 122 249 1.000 10000.000 0.000 -1.505
107 321.00 1500.01 125 268 1.000 10000.000 0.000 -1.505
108 324.00 1500.01 134 273 1.000 10000.000 0.000 -1.505
109 327.00 1500.01 109 335 1.000 10000.000 0.000 -1.505
110 330.00 1500.01 122 330 1.000 10000.000 0.000 -1.505
111 333.00 1500.01 126 386 1.000 10000.000 0.000 -1.505
112 336.00 1500.01 139 376 1.000 10000.000 0.000 -1.505
113 339.00 1500.01 132 367 1.000 10000.000 0.000 -1.505
114 342.00 1500.01 146 411 1.000 10000.000 0.000 -1.505
115 345.00 1500.01 121 396 1.000 10000.000 0.000 -1.505
116 348.00 1500.01 138 391 1.000 10000.000 0.000 -1.505
117 351.00 1500.01 126 383 1.000 10000.000 0.000 -1.505
118 354.00 1500.01 121 397 1.000 10000.000 0.000 -1.505
119 357.00 1500.01 122 357 1.000 10000.000 0.000 -1.505
120 360.00 1500.01 129 344 1.000 10000.000 0.000 -1.505
121 363.00 1500.01 95 284 1.000 10000.000 0.000 -1.505
122 366.00 1500.01 123 285 1.000 10000.000 0.000 -1.505
123 369.00 1500.01 102 276 1.000 10000.000 0.000 -1.505
124 372.00 1500.01 107 267 1.000 10000.000 0.000 -1.505
125 375.00 1500.01 100 242 1.000 10000.000 0.000 -1.505
126 378.00 1500.01 88 204 1.000 10000.000 0.000 -1.505
127 381.00 1500.01 104 166 1.000 10000.000 0.000 -1.505
128 384.00 1500.01 121 176 1.000 10000.000 0.000 -1.505
129 387.00 1500.01 106 154 1.000 10000.000 0.000 -1.505
130 390.00 1500.01 114 193 1.000 10000.000 0.000 -1.505
131 393.00 1500.01 96 167 1.000 10000.000 0.000 -1.505
132 396.00 1500.01 115 182 1.000 10000.000 0.000 -1.505
133 399.00 1500.01 98 163 1.000 10000.000 0.000 -1.505
134 402.00 1500.01 120 149 1.000 10000.000 0.000 -1.505
