# BinNR microsec tot-time (s)  O-Beam AUX Ampl(V) f(Hz) phase(deg) chi(pos)
0 0.00 1500.01 100 360 1.000 10000.000 0.000 1.000
1 3.00 1500.01 244 736 1.000 10000.000 0.000 1.000
2 6.00 1500.01 230 796 1.000 10000.000 0.000 1.000
3 9.00 1500.01 244 795 1.000 10000.000 0.000 1.000
4 12.00 1500.01 247 848 1.000 10000.000 0.000 1.000
5 15.00 1500.01 213 852 1.000 10000.000 0.000 1.000
6 18.00 1500.01 249 902 1.000 10000.000 0.000 1.000
7 21.00 1500.01 267 848 1.000 10000.000 0.000 1.000
8 24.00 1500.01 278 920 1.000 10000.000 0.000 1.000
9 27.00 1500.01 285 932 1.000 10000.000 0.000 1.000
10 30.00 1500.01 307 927 1.000 10000.000 0.000 1.000
11 33.00 1500.01 280 960 1.000 10000.000 0.000 1.000
12 36.00 1500.01 273 933 1.000 10000.000 0.000 1.000
13 39.00 1500.01 291 984 1.000 10000.000 0.000 1.000
14 42.00 1500.01 333 1069 1.000 10000.000 0.000 1.000
15 45.00 1500.01 289 917 1.000 10000.000 0.000 1.000
16 48.00 1500.01 298 968 1.000 10000.000 0.000 1.000
17 51.00 1500.01 304 957 1.000 10000.000 0.000 1.000
18 54.00 1500.01 282 965 1.000 10000.000 0.000 1.000
19 57.00 1500.01 266 922 1.000 10000.000 0.000 1.000
20 60.00 1500.01 310 904 1.000 10000.000 0.000 1.000
21 63.00 1500.01 263 948 1.000 10000.000 0.000 1.000
22 66.00 1500.01 250 877 1.000 10000.000 0.000 1.000
23 69.00 1500.01 268 864 1.000 10000.000 0.000 1.000
24 72.00 1500.01 225 844 1.000 10000.000 0.000 1.000
25 75.00 1500.01 220 818 1.000 10000.000 0.000 1.000
26 78.00 1500.01 216 781 1.000 10000.000 0.000 1.000
27 81.00 1500.01 228 772 1.000 10000.000 0.000 1.000
28 84.00 1500.01 208 745 1.000 10000.000 0.000 1.000
29 87.00 1500.01 209 750 1.000 10000.000 0.000 1.000
30 90.00 1500.01 223 673 1.000 10000.000 0.000 1.000
31 93.00 1500.01 208 692 1.000 10000.000 0.000 1.000
32 96.00 1500.01 198 719 1.000 10000.000 0.000 1.000
33 99.00 1500.01 195 679 1.000 10000.000 0.000 1.000
34 102.00 1500.01 200 706 1.000 10000.000 0.000 1.000
35 105.00 1500.01 214 730 1.000 10000.000 0.000 1.000
36 108.00 1500.01 222 788 1.000 10000.000 0.000 1.000
37 111.00 1500.01 257 714 1.000 10000.000 0.000 1.000
38 114.00 1500.01 272 803 1.000 10000.000 0.000 1.000
39 117.00 1500.01 257 824 1.000 10000.000 0.000 1.000
40 120.00 1500.01 239 952 1.000 10000.000 0.000 1.000
41 123.00 1500.01 251 873 1.000 10000.000 0.000 1.000
42 126.00 1500.01 280 902 1.000 10000.000 0.000 1.000
43 129.00 1500.01 281 918 1.000 10000.000 0.000 1.000
44 132.00 1500.01 301 947 1.000 10000.000 0.000 1.000
45 135.00 1500.01 312 960 1.000 10000.000 0.000 1.000
46 138.00 1500.01 323 990 1.000 10000.000 0.000 1.000
47 141.00 1500.01 283 1020 1.000 10000.000 0.000 1.000
48 144.00 1500.01 274 1002 1.000 10000.000 0.000 1.000
49 147.00 1500.01 329 998 1.000 10000.000 0.000 1.000
50 150.00 1500.01 316 979 1.000 10000.000 0.000 1.000
51 153.00 1500.01 320 988 1.000 10000.000 0.000 1.000
52 156.00 1500.01 282 966 1.000 10000.000 0.000 1.000
53 159.00 1500.01 273 959 1.000 10000.000 0.000 1.000
54 162.00 1500.01 286 921 1.000 10000.000 0.000 1.000
55 165.00 1500.01 244 918 1.000 10000.000 0.000 1.000
56 168.00 1500.01 277 903 1.000 10000.000 0.000 1.000
57 171.00 1500.01 256 865 1.000 10000.000 0.000 1.000
58 174.00 1500.01 231 810 1.000 10000.000 0.000 1.000
59 177.00 1500.01 234 746 1.000 10000.000 0.000 1.000
60 180.00 1500.01 233 793 1.000 10000.000 0.000 1.000
61 183.00 1500.01 197 762 1.000 10000.000 0.000 1.000
62 186.00 1500.01 206 716 1.000 10000.000 0.000 1.000
63 189.00 1500.01 200 716 1.000 10000.000 0.000 1.000
64 192.00 1500.01 222 677 1.000 10000.000 0.000 1.000
65 195.00 1500.01 227 684 1.000 10000.000 0.000 1.000
66 198.00 1500.01 220 732 1.000 10000.000 0.000 1.000
67 201.00 1500.01 217 699 1.000 10000.000 0.000 1.000
68 204.00 1500.01 226 716 1.000 10000.000 0.000 1.000
69 207.00 1500.01 208 780 1.000 10000.000 0.000 1.000
70 210.00 1500.01 222 752 1.000 10000.000 0.000 1.000
71 213.00 1500.01 214 772 1.000 10000.000 0.000 1.000
72 216.00 1500.01 235 830 1.000 10000.000 0.000 1.000
73 219.00 1500.01 263 859 1.000 10000.000 0.000 1.000
74 222.00 1500.01 285 927 1.000 10000.000 0.000 1.000
75 225.00 1500.01 246 878 1.000 10000.000 0.000 1.000
76 228.00 1500.01 310 907 1.000 10000.000 0.000 1.000
77 231.00 1500.01 263 885 1.000 10000.000 0.000 1.000
78 234.00 1500.01 300 951 1.000 10000.000 0.000 1.000
79 237.00 1500.01 309 967 1.000 10000.000 0.000 1.000
80 240.00 1500.01 283 1007 1.000 10000.000 0.000 1.000
81 243.00 1500.01 300 1016 1.000 10000.000 0.000 1.000
82 246.00 1500.01 324 1000 1.000 10000.000 0.000 1.000
83 249.00 1500.01 287 998 1.000 10000.000 0.000 1.000
84 252.00 1500.01 308 1046 1.000 10000.000 0.000 1.000
85 255.00 1500.01 287 950 1.000 10000.000 0.000 1.000
86 258.00 1500.01 305 960 1.000 10000.000 0.000 1.000
87 261.00 1500.01 265 965 1.000 10000.000 0.000 1.000
88 264.00 1500.01 246 890 1.000 10000.000 0.000 1.000
89 267.00 1500.01 272 893 1.000 10000.000 0.000 1.000
90 270.00 1500.01 265 840 1.000 10000.000 0.000 1.000
91 273.00 1500.01 242 801 1.000 10000.000 0.000 1.000
92 276.00 1500.01 215 841 1.000 10000.000 0.000 1.000
93 279.00 1500.01 215 801 1.000 10000.000 0.000 1.000
94 282.00 1500.01 215 833 1.000 10000.000 0.000 1.000
95 285.00 1500.01 206 771 1.000 10000.000 0.000 1.000
96 288.00 1500.01 194 742 1.000 10000.000 0.000 1.000
97 291.00 1500.01 209 707 1.000 10000.000 0.000 1.000
98 294.00 1500.01 194 680 1.000 10000.000 0.000 1.000
99 297.00 1500.01 182 675 1.000 10000.000 0.000 1.000
100 300.00 1500.01 207 775 1.000 10000.000 0.000 1.000
101 303.00 1500.01 234 695 1.000 10000.000 0.000 1.000
102 306.00 1500.01 208 738 1.000 10000.000 0.000 1.000
103 309.00 1500.01 245 721 1.000 10000.000 0.000 1.000
104 312.00 1500.01 237 824 1.000 10000.000 0.000 1.000
105 315.00 1500.01 246 768 1.000 10000.000 0.000 1.000
106 318.00 1500.01 260 816 1.000 10000.000 0.000 1.000
107 321.00 1500.01 280 829 1.000 10000.000 0.000 1.000
108 324.00 1500.01 282 917 1.000 10000.000 0.000 1.000
109 327.00 1500.01 287 879 1.000 10000.000 0.000 1.000
110 330.00 1500.01 279 977 1.000 10000.000 0.000 1.000
111 333.00 1500.01 281 924 1.000 10000.000 0.000 1.000
112 336.00 1500.01 311 1003 1.000 10000.000 0.000 1.000
113 339.00 1500.01 299 999 1.000 10000.000 0.000 1.000
114 342.00 1500.01 312 1046 1.000 10000.000 0.000 1.000
115 345.00 1500.01 282 983 1.000 10000.000 0.000 1.000
116 348.00 1500.01 322 1032 1.000 10000.000 0.000 1.000
117 351.00 1500.01 299 984 1.000 10000.000 0.000 1.000
118 354.00 1500.01 311 1010 1.000 10000.000 0.000 1.000
119 357.00 1500.01 314 1035 1.000 10000.000 0.000 1.000
120 360.00 1500.01 294 958 1.000 10000.000 0.000 1.000
121 363.00 1500.01 258 934 1.000 10000.000 0.000 1.000
122 366.00 1500.01 254 891 1.000 10000.000 0.000 1.000
123 369.00 1500.01 274 876 1.000 10000.000 0.000 1.000
124 372.00 1500.01 273 816 1.000 10000.000 0.000 1.000
125 375.00 1500.01 225 779 1.000 10000.000 0.000 1.000
126 378.00 1500.01 235 807 1.000 10000.000 0.000 1.000
127 381.00 1500.01 248 789 1.000 10000.000 0.000 1.000
128 384.00 1500.01 246 797 1.000 10000.000 0.000 1.000
129 387.00 1500.01 206 711 1.000 10000.000 0.000 1.000
130 390.00 1500.01 201 732 1.000 10000.000 0.000 1.000
131 393.00 1500.01 222 667 1.000 10000.000 0.000 1.000
132 396.00 1500.01 212 727 1.000 10000.000 0.000 1.000
133 399.00 1500.01 192 666 1.000 10000.000 0.000 1.000
134 402.00 1500.01 212 699 1.000 10000.000 0.000 1.000
