# BinNR microsec tot-time (s)  O-Beam AUX Ampl(V) f(Hz) phase(deg) chi(pos)
0 0.00 1500.00 228 566 1.000 10000.000 0.000 -0.319
1 3.00 1500.00 415 1115 1.000 10000.000 0.000 -0.319
2 6.00 1500.00 392 1127 1.000 10000.000 0.000 -0.319
3 9.00 1500.00 452 1096 1.000 10000.000 0.000 -0.319
4 12.00 1500.00 429 1019 1.000 10000.000 0.000 -0.319
5 15.00 1500.00 402 1026 1.000 10000.000 0.000 -0.319
6 18.00 1500.00 432 1015 1.000 10000.000 0.000 -0.319
7 21.00 1500.00 381 949 1.000 10000.000 0.000 -0.319
8 24.00 1500.00 413 947 1.000 10000.000 0.000 -0.319
9 27.00 1500.00 400 887 1.000 10000.000 0.000 -0.319
10 30.00 1500.00 395 910 1.000 10000.000 0.000 -0.319
11 33.00 1500.00 402 844 1.000 10000.000 0.000 -0.319
12 36.00 1500.00 393 865 1.000 10000.000 0.000 -0.319
13 39.00 1500.00 338 809 1.000 10000.000 0.000 -0.319
14 42.00 1500.00 447 771 1.000 10000.000 0.000 -0.319
15 45.00 1500.00 413 868 1.000 10000.000 0.000 -0.319
16 48.00 1500.00 403 829 1.000 10000.000 0.000 -0.319
17 51.00 1500.00 377 846 1.000 10000.000 0.000 -0.319
18 54.00 1500.00 381 853 1.000 10000.000 0.000 -0.319
19 57.00 1500.00 421 886 1.000 10000.000 0.000 -0.319
20 60.00 1500.00 439 866 1.000 10000.000 0.000 -0.319
21 63.00 1500.00 439 942 1.000 10000.000 0.000 -0.319
22 66.00 1500.00 432 930 1.000 10000.000 0.000 -0.319
23 69.00 1500.00 417 978 1.000 10000.000 0.000 -0.319
24 72.00 1500.00 454 1033 1.000 10000.000 0.000 -0.319
25 75.00 1500.00 418 1064 1.000 10000.000 0.000 -0.319
26 78.00 1500.00 441 1040 1.000 10000.000 0.000 -0.319
27 81.00 1500.00 438 1111 1.000 10000.000 0.000 -0.319
28 84.00 1500.00 466 1142 1.000 10000.000 0.000 -0.319
29 87.00 1500.00 447 1146 1.000 10000.000 0.000 -0.319
30 90.00 1500.00 460 1224 1.000 10000.000 0.000 -0.319
31 93.00 1500.00 456 1153 1.000 10000.000 0.000 -0.319
32 96.00 1500.00 415 1166 1.000 10000.000 0.000 -0.319
33 99.00 1500.00 448 1179 1.000 10000.000 0.000 -0.319
34 102.00 1500.00 447 1194 1.000 10000.000 0.000 -0.319
35 105.00 1500.00 393 1126 1.000 10000.000 0.000 -0.319
36 108.00 1500.00 494 1174 1.000 10000.000 0.000 -0.319
37 111.00 1500.00 441 1051 1.000 10000.000 0.000 -0.319
38 114.00 1500.00 472 1112 1.000 10000.000 0.000 -0.319
39 117.00 1500.00 407 1045 1.000 10000.000 0.000 -0.319
40 120.00 1500.00 415 1007 1.000 10000.000 0.000 -0.319
41 123.00 1500.00 385 880 1.000 10000.000 0.000 -0.319
42 126.00 1500.00 401 954 1.000 10000.000 0.000 -0.319
43 129.00 1500.00 406 888 1.000 10000.000 0.000 -0.319
44 132.00 1500.00 397 896 1.000 10000.000 0.000 -0.319
45 135.00 1500.00 362 813 1.000 10000.000 0.000 -0.319
46 138.00 1500.00 399 845 1.000 10000.000 0.000 -0.319
47 141.00 1500.00 412 819 1.000 10000.000 0.000 -0.319
48 144.00 1500.00 381 839 1.000 10000.000 0.000 -0.319
49 147.00 1500.00 384 772 1.000 10000.000 0.000 -0.319
50 150.00 1500.00 372 841 1.000 10000.000 0.000 -0.319
51 153.00 1500.00 387 839 1.000 10000.000 0.000 -0.319
52 156.00 1500.00 382 880 1.000 10000.000 0.000 -0.319
53 159.00 1500.00 385 845 1.000 10000.000 0.000 -0.319
54 162.00 1500.00 378 934 1.000 10000.000 0.000 -0.319
55 165.00 1500.00 442 926 1.000 10000.000 0.000 -0.319
56 168.00 1500.00 425 922 1.000 10000.000 0.000 -0.319
57 171.00 1500.00 375 1003 1.000 10000.000 0.000 -0.319
58 174.00 1500.00 446 1094 1.000 10000.000 0.000 -0.319
59 177.00 1500.00 462 1050 1.000 10000.000 0.000 -0.319
60 180.00 1500.00 459 1117 1.000 10000.000 0.000 -0.319
61 183.00 1500.00 486 1197 1.000 10000.000 0.000 -0.319
62 186.00 1500.00 453 1155 1.000 10000.000 0.000 -0.319
63 189.00 1500.00 457 1178 1.000 10000.000 0.000 -0.319
64 192.00 1500.00 436 1159 1.000 10000.000 0.000 -0.319
65 195.00 1500.00 454 1207 1.000 10000.000 0.000 -0.319
66 198.00 1500.00 465 1156 1.000 10000.000 0.000 -0.319
67 201.00 1500.00 449 1143 1.000 10000.000 0.000 -0.319
68 204.00 1500.00 452 1186 1.000 10000.000 0.000 -0.319
69 207.00 1500.00 402 1119 1.000 10000.000 0.000 -0.319
70 210.00 1500.00 470 1123 1.000 10000.000 0.000 -0.319
71 213.00 1500.00 417 1060 1.000 10000.000 0.000 -0.319
72 216.00 1500.00 456 1060 1.000 10000.000 0.000 -0.319
73 219.00 1500.00 406 1061 1.000 10000.000 0.000 -0.319
74 222.00 1500.00 431 905 1.000 10000.000 0.000 -0.319
75 225.00 1500.00 385 964 1.000 10000.000 0.000 -0.319
76 228.00 1500.00 404 944 1.000 10000.000 0.000 -0.319
77 231.00 1500.00 383 859 1.000 10000.000 0.000 -0.319
78 234.00 1500.00 389 890 1.000 10000.000 0.000 -0.319
79 237.00 1500.00 393 821 1.000 10000.000 0.000 -0.319
80 240.00 1500.00 339 828 1.000 10000.000 0.000 -0.319
81 243.00 1500.00 404 830 1.000 10000.000 0.000 -0.319
82 246.00 1500.00 369 793 1.000 10000.000 0.000 -0.319
83 249.00 1500.00 380 853 1.000 10000.000 0.000 -0.319
84 252.00 1500.00 381 850 1.000 10000.000 0.000 -0.319
85 255.00 1500.00 410 806 1.000 10000.000 0.000 -0.319
86 258.00 1500.00 368 863 1.000 10000.000 0.000 -0.319
87 261.00 1500.00 383 907 1.000 10000.000 0.000 -0.319
88 264.00 1500.00 416 929 1.000 10000.000 0.000 -0.319
89 267.00 1500.00 377 996 1.000 10000.000 0.000 -0.319
90 270.00 1500.00 477 1009 1.000 10000.000 0.000 -0.319
91 273.00 1500.00 451 1045 1.000 10000.000 0.000 -0.319
92 276.00 1500.00 458 1035 1.000 10000.000 0.000 -0.319
93 279.00 1500.00 441 1071 1.000 10000.000 0.000 -0.319
94 282.00 1500.00 440 1111 1.000 10000.000 0.000 -0.319
95 285.00 1500.00 431 1174 1.000 10000.000 0.000 -0.319
96 288.00 1500.00 431 1157 1.000 10000.000 0.000 -0.319
97 291.00 1500.00 461 1207 1.000 10000.000 0.000 -0.319
98 294.00 1500.00 425 1144 1.000 10000.000 0.000 -0.319
99 297.00 1500.00 432 1174 1.000 10000.000 0.000 -0.319
100 300.00 1500.00 473 1172 1.000 10000.000 0.000 -0.319
101 303.00 1500.00 415 1157 1.000 10000.000 0.000 -0.319
102 306.00 1500.00 458 1183 1.000 10000.000 0.000 -0.319
103 309.00 1500.00 422 1091 1.000 10000.000 0.000 -0.319
104 312.00 1500.00 458 1175 1.000 10000.000 0.000 -0.319
105 315.00 1500.00 421 1126 1.000 10000.000 0.000 -0.319
106 318.00 1500.00 476 1090 1.000 10000.000 0.000 -0.319
107 321.00 1500.00 397 1023 1.000 10000.000 0.000 -0.319
108 324.00 1500.00 388 924 1.000 10000.000 0.000 -0.319
109 327.00 1500.00 402 1002 1.000 10000.000 0.000 -0.319
110 330.00 1500.00 422 920 1.000 10000.000 0.000 -0.319
111 333.00 1500.00 382 905 1.000 10000.000 0.000 -0.319
112 336.00 1500.00 369 840 1.000 10000.000 0.000 -0.319
113 339.00 1500.00 366 805 1.000 10000.000 0.000 -0.319
114 342.00 1500.00 387 863 1.000 10000.000 0.000 -0.319
115 345.00 1500.00 411 836 1.000 10000.000 0.000 -0.319
116 348.00 1500.00 403 823 1.000 10000.000 0.000 -0.319
117 351.00 1500.00 413 867 1.000 10000.000 0.000 -0.319
118 354.00 1500.00 418 879 1.000 10000.000 0.000 -0.319
119 357.00 1500.00 393 849 1.000 10000.000 0.000 -0.319
120 360.00 1500.00 402 872 1.000 10000.000 0.000 -0.319
121 363.00 1500.00 418 961 1.000 10000.000 0.000 -0.319
122 366.00 1500.00 427 961 1.000 10000.000 0.000 -0.319
123 369.00 1500.00 398 947 1.000 10000.000 0.000 -0.319
124 372.00 1500.00 467 1038 1.000 10000.000 0.000 -0.319
125 375.00 1500.00 404 1036 1.000 10000.000 0.000 -0.319
126 378.00 1500.00 454 1088 1.000 10000.000 0.000 -0.319
127 381.00 1500.00 421 1121 1.000 10000.000 0.000 -0.319
128 384.00 1500.00 452 1128 1.000 10000.000 0.000 -0.319
129 387.00 1500.00 429 1144 1.000 10000.000 0.000 -0.319
130 390.00 1500.00 478 1141 1.000 10000.000 0.000 -0.319
131 393.00 1500.00 441 1219 1.000 10000.000 0.000 -0.319
132 396.00 1500.00 456 1163 1.000 10000.000 0.000 -0.319
133 399.00 1500.00 431 1177 1.000 10000.000 0.000 -0.319
134 402.00 1500.00 447 1177 1.000 10000.000 0.000 -0.319
