# BinNR microsec tot-time (s)  O-Beam AUX Ampl(V) f(Hz) phase(deg) chi(pos)
0 0.00 1500.01 234 662 1.000 10000.000 0.000 -0.505
1 3.00 1500.01 453 1384 1.000 10000.000 0.000 -0.505
2 6.00 1500.01 458 1355 1.000 10000.000 0.000 -0.505
3 9.00 1500.01 459 1318 1.000 10000.000 0.000 -0.505
4 12.00 1500.01 466 1284 1.000 10000.000 0.000 -0.505
5 15.00 1500.01 509 1253 1.000 10000.000 0.000 -0.505
6 18.00 1500.01 470 1265 1.000 10000.000 0.000 -0.505
7 21.00 1500.01 437 1218 1.000 10000.000 0.000 -0.505
8 24.00 1500.01 416 1184 1.000 10000.000 0.000 -0.505
9 27.00 1500.01 431 1172 1.000 10000.000 0.000 -0.505
10 30.00 1500.01 458 1109 1.000 10000.000 0.000 -0.505
11 33.00 1500.01 464 1116 1.000 10000.000 0.000 -0.505
12 36.00 1500.01 437 1187 1.000 10000.000 0.000 -0.505
13 39.00 1500.01 444 1093 1.000 10000.000 0.000 -0.505
14 42.00 1500.01 430 1127 1.000 10000.000 0.000 -0.505
15 45.00 1500.01 447 1182 1.000 10000.000 0.000 -0.505
16 48.00 1500.01 454 1170 1.000 10000.000 0.000 -0.505
17 51.00 1500.01 450 1142 1.000 10000.000 0.000 -0.505
18 54.00 1500.01 474 1201 1.000 10000.000 0.000 -0.505
19 57.00 1500.01 449 1120 1.000 10000.000 0.000 -0.505
20 60.00 1500.01 433 1277 1.000 10000.000 0.000 -0.505
21 63.00 1500.01 452 1253 1.000 10000.000 0.000 -0.505
22 66.00 1500.01 426 1227 1.000 10000.000 0.000 -0.505
23 69.00 1500.01 469 1241 1.000 10000.000 0.000 -0.505
24 72.00 1500.01 458 1259 1.000 10000.000 0.000 -0.505
25 75.00 1500.01 479 1319 1.000 10000.000 0.000 -0.505
26 78.00 1500.01 460 1311 1.000 10000.000 0.000 -0.505
27 81.00 1500.01 445 1322 1.000 10000.000 0.000 -0.505
28 84.00 1500.01 464 1398 1.000 10000.000 0.000 -0.505
29 87.00 1500.01 480 1354 1.000 10000.000 0.000 -0.505
30 90.00 1500.01 480 1393 1.000 10000.000 0.000 -0.505
31 93.00 1500.01 478 1262 1.000 10000.000 0.000 -0.505
32 96.00 1500.01 476 1378 1.000 10000.000 0.000 -0.505
33 99.00 1500.01 478 1331 1.000 10000.000 0.000 -0.505
34 102.00 1500.01 515 1376 1.000 10000.000 0.000 -0.505
35 105.00 1500.01 485 1289 1.000 10000.000 0.000 -0.505
36 108.00 1500.01 534 1367 1.000 10000.000 0.000 -0.505
37 111.00 1500.01 424 1265 1.000 10000.000 0.000 -0.505
38 114.00 1500.01 453 1277 1.000 10000.000 0.000 -0.505
39 117.00 1500.01 464 1244 1.000 10000.000 0.000 -0.505
40 120.00 1500.01 516 1308 1.000 10000.000 0.000 -0.505
41 123.00 1500.01 453 1216 1.000 10000.000 0.000 -0.505
42 126.00 1500.01 469 1187 1.000 10000.000 0.000 -0.505
43 129.00 1500.01 462 1174 1.000 10000.000 0.000 -0.505
44 132.00 1500.01 441 1169 1.000 10000.000 0.000 -0.505
45 135.00 1500.01 485 1155 1.000 10000.000 0.000 -0.505
46 138.00 1500.01 447 1083 1.000 10000.000 0.000 -0.505
47 141.00 1500.01 460 1071 1.000 10000.000 0.000 -0.505
48 144.00 1500.01 431 1151 1.000 10000.000 0.000 -0.505
49 147.00 1500.01 459 1132 1.000 10000.000 0.000 -0.505
50 150.00 1500.01 466 1138 1.000 10000.000 0.000 -0.505
51 153.00 1500.01 455 1124 1.000 10000.000 0.000 -0.505
52 156.00 1500.01 459 1188 1.000 10000.000 0.000 -0.505
53 159.00 1500.01 452 1144 1.000 10000.000 0.000 -0.505
54 162.00 1500.01 508 1235 1.000 10000.000 0.000 -0.505
55 165.00 1500.01 434 1282 1.000 10000.000 0.000 -0.505
56 168.00 1500.01 459 1294 1.000 10000.000 0.000 -0.505
57 171.00 1500.01 500 1290 1.000 10000.000 0.000 -0.505
58 174.00 1500.01 477 1271 1.000 10000.000 0.000 -0.505
59 177.00 1500.01 471 1311 1.000 10000.000 0.000 -0.505
60 180.00 1500.01 480 1251 1.000 10000.000 0.000 -0.505
61 183.00 1500.01 480 1370 1.000 10000.000 0.000 -0.505
62 186.00 1500.01 478 1284 1.000 10000.000 0.000 -0.505
63 189.00 1500.01 463 1314 1.000 10000.000 0.000 -0.505
64 192.00 1500.01 474 1346 1.000 10000.000 0.000 -0.505
65 195.00 1500.01 470 1294 1.000 10000.000 0.000 -0.505
66 198.00 1500.01 468 1413 1.000 10000.000 0.000 -0.505
67 201.00 1500.01 471 1346 1.000 10000.000 0.000 -0.505
68 204.00 1500.01 461 1320 1.000 10000.000 0.000 -0.505
69 207.00 1500.01 453 1357 1.000 10000.000 0.000 -0.505
70 210.00 1500.01 486 1335 1.000 10000.000 0.000 -0.505
71 213.00 1500.01 446 1314 1.000 10000.000 0.000 -0.505
72 216.00 1500.01 484 1305 1.000 10000.000 0.000 -0.505
73 219.00 1500.01 456 1311 1.000 10000.000 0.000 -0.505
74 222.00 1500.01 450 1283 1.000 10000.000 0.000 -0.505
75 225.00 1500.01 461 1234 1.000 10000.000 0.000 -0.505
76 228.00 1500.01 446 1191 1.000 10000.000 0.000 -0.505
77 231.00 1500.01 410 1164 1.000 10000.000 0.000 -0.505
78 234.00 1500.01 486 1162 1.000 10000.000 0.000 -0.505
79 237.00 1500.01 452 1134 1.000 10000.000 0.000 -0.505
80 240.00 1500.01 505 1148 1.000 10000.000 0.000 -0.505
81 243.00 1500.01 459 1118 1.000 10000.000 0.000 -0.505
82 246.00 1500.01 448 1124 1.000 10000.000 0.000 -0.505
83 249.00 1500.01 461 1076 1.000 10000.000 0.000 -0.505
84 252.00 1500.01 481 1087 1.000 10000.000 0.000 -0.505
85 255.00 1500.01 489 1159 1.000 10000.000 0.000 -0.505
86 258.00 1500.01 438 1156 1.000 10000.000 0.000 -0.505
87 261.00 1500.01 451 1133 1.000 10000.000 0.000 -0.505
88 264.00 1500.01 497 1230 1.000 10000.000 0.000 -0.505
89 267.00 1500.01 461 1237 1.000 10000.000 0.000 -0.505
90 270.00 1500.01 502 1321 1.000 10000.000 0.000 -0.505
91 273.00 1500.01 420 1311 1.000 10000.000 0.000 -0.505
92 276.00 1500.01 464 1254 1.000 10000.000 0.000 -0.505
93 279.00 1500.01 469 1291 1.000 10000.000 0.000 -0.505
94 282.00 1500.01 473 1359 1.000 10000.000 0.000 -0.505
95 285.00 1500.01 471 1301 1.000 10000.000 0.000 -0.505
96 288.00 1500.01 442 1341 1.000 10000.000 0.000 -0.505
97 291.00 1500.01 473 1333 1.000 10000.000 0.000 -0.505
98 294.00 1500.01 468 1351 1.000 10000.000 0.000 -0.505
99 297.00 1500.01 442 1395 1.000 10000.000 0.000 -0.505
100 300.00 1500.01 490 1363 1.000 10000.000 0.000 -0.505
101 303.00 1500.01 507 1378 1.000 10000.000 0.000 -0.505
102 306.00 1500.01 493 1342 1.000 10000.000 0.000 -0.505
103 309.00 1500.01 484 1298 1.000 10000.000 0.000 -0.505
104 312.00 1500.01 456 1312 1.000 10000.000 0.000 -0.505
105 315.00 1500.01 451 1357 1.000 10000.000 0.000 -0.505
106 318.00 1500.01 486 1268 1.000 10000.000 0.000 -0.505
107 321.00 1500.01 450 1276 1.000 10000.000 0.000 -0.505
108 324.00 1500.01 432 1238 1.000 10000.000 0.000 -0.505
109 327.00 1500.01 460 1201 1.000 10000.000 0.000 -0.505
110 330.00 1500.01 437 1201 1.000 10000.000 0.000 -0.505
111 333.00 1500.01 461 1143 1.000 10000.000 0.000 -0.505
112 336.00 1500.01 467 1164 1.000 10000.000 0.000 -0.505
113 339.00 1500.01 454 1080 1.000 10000.000 0.000 -0.505
114 342.00 1500.01 483 1143 1.000 10000.000 0.000 -0.505
115 345.00 1500.01 477 1067 1.000 10000.000 0.000 -0.505
116 348.00 1500.01 521 1135 1.000 10000.000 0.000 -0.505
117 351.00 1500.01 468 1126 1.000 10000.000 0.000 -0.505
118 354.00 1500.01 473 1137 1.000 10000.000 0.000 -0.505
119 357.00 1500.01 437 1147 1.000 10000.000 0.000 -0.505
120 360.00 1500.01 441 1153 1.000 10000.000 0.000 -0.505
121 363.00 1500.01 456 1220 1.000 10000.000 0.000 -0.505
122 366.00 1500.01 491 1253 1.000 10000.000 0.000 -0.505
123 369.00 1500.01 466 1272 1.000 10000.000 0.000 -0.505
124 372.00 1500.01 462 1246 1.000 10000.000 0.000 -0.505
125 375.00 1500.01 459 1252 1.000 10000.000 0.000 -0.505
126 378.00 1500.01 489 1378 1.000 10000.000 0.000 -0.505
127 381.00 1500.01 492 1357 1.000 10000.000 0.000 -0.505
128 384.00 1500.01 479 1399 1.000 10000.000 0.000 -0.505
129 387.00 1500.01 502 1357 1.000 10000.000 0.000 -0.505
130 390.00 1500.01 438 1389 1.000 10000.000 0.000 -0.505
131 393.00 1500.01 498 1359 1.000 10000.000 0.000 -0.505
132 396.00 1500.01 450 1339 1.000 10000.000 0.000 -0.505
133 399.00 1500.01 470 1359 1.000 10000.000 0.000 -0.505
134 402.00 1500.01 469 1358 1.000 10000.000 0.000 -0.505
