# BinNR microsec tot-time (s)  O-Beam H-beam AUX Ampl(V) f(Hz) phase(deg) chi(pos)
0 0.00 900.00 361 303 1 5.155 2000.000 0.000 0.352
1 25.00 900.00 288 293 0 5.155 2000.000 0.000 0.352
2 50.00 900.00 270 341 0 5.155 2000.000 0.000 0.352
3 75.00 900.00 274 433 0 5.155 2000.000 0.000 0.352
4 100.00 900.00 354 493 0 5.155 2000.000 0.000 0.352
5 125.00 900.00 431 557 0 5.155 2000.000 0.000 0.352
6 150.00 900.00 417 603 1 5.155 2000.000 0.000 0.352
7 175.00 900.00 369 611 1 5.155 2000.000 0.000 0.352
8 200.00 900.00 271 587 3 5.155 2000.000 0.000 0.352
9 225.00 900.00 207 585 1 5.155 2000.000 0.000 0.352
10 250.00 900.00 126 532 0 5.155 2000.000 0.000 0.352
11 275.00 900.00 134 437 1 5.155 2000.000 0.000 0.352
12 300.00 900.00 123 303 1 5.155 2000.000 0.000 0.352
13 325.00 900.00 137 289 0 5.155 2000.000 0.000 0.352
14 350.00 900.00 177 284 2 5.155 2000.000 0.000 0.352
15 375.00 900.00 234 373 0 5.155 2000.000 0.000 0.352
16 400.00 900.00 314 402 1 5.155 2000.000 0.000 0.352
17 425.00 900.00 397 446 0 5.155 2000.000 0.000 0.352
18 450.00 900.00 425 461 2 5.155 2000.000 0.000 0.352
19 475.00 900.00 380 378 0 5.155 2000.000 0.000 0.352
20 500.00 900.00 320 339 2 5.155 2000.000 0.000 0.352
21 525.00 900.00 274 268 1 5.155 2000.000 0.000 0.352
22 550.00 900.00 252 338 3 5.155 2000.000 0.000 0.352
23 575.00 900.00 297 375 0 5.155 2000.000 0.000 0.352
24 600.00 900.00 378 539 1 5.155 2000.000 0.000 0.352
25 625.00 900.00 442 548 1 5.155 2000.000 0.000 0.352
26 650.00 900.00 433 599 0 5.155 2000.000 0.000 0.352
27 675.00 900.00 387 624 0 5.155 2000.000 0.000 0.352
28 700.00 900.00 270 562 1 5.155 2000.000 0.000 0.352
29 725.00 900.00 191 599 3 5.155 2000.000 0.000 0.352
30 750.00 900.00 157 537 0 5.155 2000.000 0.000 0.352
31 775.00 900.00 123 443 0 5.155 2000.000 0.000 0.352
32 800.00 900.00 159 362 0 5.155 2000.000 0.000 0.352
33 825.00 900.00 156 277 1 5.155 2000.000 0.000 0.352
34 850.00 900.00 164 309 1 5.155 2000.000 0.000 0.352
35 875.00 900.00 217 361 0 5.155 2000.000 0.000 0.352
36 900.00 900.00 291 430 2 5.155 2000.000 0.000 0.352
37 925.00 900.00 404 479 0 5.155 2000.000 0.000 0.352
38 950.00 900.00 417 394 0 5.155 2000.000 0.000 0.352
39 975.00 900.00 365 383 0 5.155 2000.000 0.000 0.352
