# BinNR microsec tot-time (s)  O-Beam H-beam AUX Ampl1(V) f1(Hz) phase1(deg) Ampl1(V) f1(Hz) phase1(deg) chi(pos)
0 0.00 1200.00 83 229 217 0.835 2000.000 0.000 0.835 3000.000 0.000 1.505
1 16.67 1200.00 81 235 237 0.835 2000.000 0.000 0.835 3000.000 0.000 1.505
2 33.33 1200.00 79 262 253 0.835 2000.000 0.000 0.835 3000.000 0.000 1.505
3 50.00 1200.00 93 276 212 0.835 2000.000 0.000 0.835 3000.000 0.000 1.505
4 66.67 1200.00 96 260 230 0.835 2000.000 0.000 0.835 3000.000 0.000 1.505
5 83.33 1200.00 84 281 229 0.835 2000.000 0.000 0.835 3000.000 0.000 1.505
6 100.00 1200.00 71 280 216 0.835 2000.000 0.000 0.835 3000.000 0.000 1.505
7 116.67 1200.00 87 314 223 0.835 2000.000 0.000 0.835 3000.000 0.000 1.505
8 133.33 1200.00 82 284 223 0.835 2000.000 0.000 0.835 3000.000 0.000 1.505
9 150.00 1200.00 86 267 206 0.835 2000.000 0.000 0.835 3000.000 0.000 1.505
10 166.67 1200.00 63 292 261 0.835 2000.000 0.000 0.835 3000.000 0.000 1.505
11 183.33 1200.00 66 233 226 0.835 2000.000 0.000 0.835 3000.000 0.000 1.505
12 200.00 1200.00 66 242 247 0.835 2000.000 0.000 0.835 3000.000 0.000 1.505
13 216.67 1200.00 69 251 232 0.835 2000.000 0.000 0.835 3000.000 0.000 1.505
14 233.33 1200.00 80 211 204 0.835 2000.000 0.000 0.835 3000.000 0.000 1.505
15 250.00 1200.00 64 257 212 0.835 2000.000 0.000 0.835 3000.000 0.000 1.505
16 266.67 1200.00 83 254 236 0.835 2000.000 0.000 0.835 3000.000 0.000 1.505
17 283.33 1200.00 69 237 177 0.835 2000.000 0.000 0.835 3000.000 0.000 1.505
18 300.00 1200.00 75 255 239 0.835 2000.000 0.000 0.835 3000.000 0.000 1.505
19 316.67 1200.00 78 244 233 0.835 2000.000 0.000 0.835 3000.000 0.000 1.505
20 333.33 1200.00 88 231 210 0.835 2000.000 0.000 0.835 3000.000 0.000 1.505
21 350.00 1200.00 90 237 230 0.835 2000.000 0.000 0.835 3000.000 0.000 1.505
22 366.67 1200.00 83 238 240 0.835 2000.000 0.000 0.835 3000.000 0.000 1.505
23 383.33 1200.00 89 256 233 0.835 2000.000 0.000 0.835 3000.000 0.000 1.505
24 400.00 1200.00 81 241 231 0.835 2000.000 0.000 0.835 3000.000 0.000 1.505
25 416.67 1200.00 79 240 207 0.835 2000.000 0.000 0.835 3000.000 0.000 1.505
26 433.33 1200.00 80 245 198 0.835 2000.000 0.000 0.835 3000.000 0.000 1.505
27 450.00 1200.00 71 234 192 0.835 2000.000 0.000 0.835 3000.000 0.000 1.505
28 466.67 1200.00 83 240 200 0.835 2000.000 0.000 0.835 3000.000 0.000 1.505
29 483.33 1200.00 89 248 200 0.835 2000.000 0.000 0.835 3000.000 0.000 1.505
30 500.00 1200.00 82 220 174 0.835 2000.000 0.000 0.835 3000.000 0.000 1.505
31 516.67 1200.00 62 226 191 0.835 2000.000 0.000 0.835 3000.000 0.000 1.505
32 533.33 1200.00 87 235 194 0.835 2000.000 0.000 0.835 3000.000 0.000 1.505
33 550.00 1200.00 71 227 202 0.835 2000.000 0.000 0.835 3000.000 0.000 1.505
34 566.67 1200.00 61 217 213 0.835 2000.000 0.000 0.835 3000.000 0.000 1.505
35 583.33 1200.00 73 238 215 0.835 2000.000 0.000 0.835 3000.000 0.000 1.505
36 600.00 1200.00 62 225 256 0.835 2000.000 0.000 0.835 3000.000 0.000 1.505
37 616.67 1200.00 70 239 260 0.835 2000.000 0.000 0.835 3000.000 0.000 1.505
38 633.33 1200.00 74 258 244 0.835 2000.000 0.000 0.835 3000.000 0.000 1.505
39 650.00 1200.00 69 270 213 0.835 2000.000 0.000 0.835 3000.000 0.000 1.505
40 666.67 1200.00 78 291 210 0.835 2000.000 0.000 0.835 3000.000 0.000 1.505
41 683.33 1200.00 81 261 236 0.835 2000.000 0.000 0.835 3000.000 0.000 1.505
42 700.00 1200.00 98 268 215 0.835 2000.000 0.000 0.835 3000.000 0.000 1.505
43 716.67 1200.00 80 285 232 0.835 2000.000 0.000 0.835 3000.000 0.000 1.505
44 733.33 1200.00 80 281 222 0.835 2000.000 0.000 0.835 3000.000 0.000 1.505
45 750.00 1200.00 89 300 237 0.835 2000.000 0.000 0.835 3000.000 0.000 1.505
46 766.67 1200.00 84 308 197 0.835 2000.000 0.000 0.835 3000.000 0.000 1.505
47 783.33 1200.00 76 243 214 0.835 2000.000 0.000 0.835 3000.000 0.000 1.505
48 800.00 1200.00 84 269 224 0.835 2000.000 0.000 0.835 3000.000 0.000 1.505
49 816.67 1200.00 88 261 210 0.835 2000.000 0.000 0.835 3000.000 0.000 1.505
50 833.34 1200.00 72 241 206 0.835 2000.000 0.000 0.835 3000.000 0.000 1.505
51 850.00 1200.00 89 238 206 0.835 2000.000 0.000 0.835 3000.000 0.000 1.505
52 866.67 1200.00 69 251 166 0.835 2000.000 0.000 0.835 3000.000 0.000 1.505
53 883.34 1200.00 75 236 199 0.835 2000.000 0.000 0.835 3000.000 0.000 1.505
54 900.00 1200.00 74 277 185 0.835 2000.000 0.000 0.835 3000.000 0.000 1.505
55 916.67 1200.00 81 267 204 0.835 2000.000 0.000 0.835 3000.000 0.000 1.505
56 933.34 1200.00 83 253 230 0.835 2000.000 0.000 0.835 3000.000 0.000 1.505
57 950.00 1200.00 73 220 228 0.835 2000.000 0.000 0.835 3000.000 0.000 1.505
58 966.67 1200.00 73 264 215 0.835 2000.000 0.000 0.835 3000.000 0.000 1.505
59 983.34 1200.00 76 211 222 0.835 2000.000 0.000 0.835 3000.000 0.000 1.505
60 1000.00 1200.00 73 236 219 0.835 2000.000 0.000 0.835 3000.000 0.000 1.505
61 1016.67 1200.00 91 235 227 0.835 2000.000 0.000 0.835 3000.000 0.000 1.505
62 1033.34 1200.00 92 260 218 0.835 2000.000 0.000 0.835 3000.000 0.000 1.505
63 1050.00 1200.00 88 266 220 0.835 2000.000 0.000 0.835 3000.000 0.000 1.505
64 1066.67 1200.00 84 253 237 0.835 2000.000 0.000 0.835 3000.000 0.000 1.505
65 1083.34 1200.00 99 310 220 0.835 2000.000 0.000 0.835 3000.000 0.000 1.505
66 1100.00 1200.00 83 295 248 0.835 2000.000 0.000 0.835 3000.000 0.000 1.505
67 1116.67 1200.00 92 302 204 0.835 2000.000 0.000 0.835 3000.000 0.000 1.505
68 1133.34 1200.00 78 287 210 0.835 2000.000 0.000 0.835 3000.000 0.000 1.505
69 1150.00 1200.00 87 239 250 0.835 2000.000 0.000 0.835 3000.000 0.000 1.505
70 1166.67 1200.00 68 255 227 0.835 2000.000 0.000 0.835 3000.000 0.000 1.505
71 1183.34 1200.00 68 234 212 0.835 2000.000 0.000 0.835 3000.000 0.000 1.505
72 1200.00 1200.00 64 260 206 0.835 2000.000 0.000 0.835 3000.000 0.000 1.505
73 1216.67 1200.00 68 236 216 0.835 2000.000 0.000 0.835 3000.000 0.000 1.505
74 1233.34 1200.00 78 244 193 0.835 2000.000 0.000 0.835 3000.000 0.000 1.505
75 1250.00 1200.00 61 241 214 0.835 2000.000 0.000 0.835 3000.000 0.000 1.505
76 1266.67 1200.00 71 249 233 0.835 2000.000 0.000 0.835 3000.000 0.000 1.505
77 1283.34 1200.00 83 233 220 0.835 2000.000 0.000 0.835 3000.000 0.000 1.505
78 1300.00 1200.00 72 239 225 0.835 2000.000 0.000 0.835 3000.000 0.000 1.505
79 1316.67 1200.00 76 253 231 0.835 2000.000 0.000 0.835 3000.000 0.000 1.505
80 1333.34 1200.00 93 233 209 0.835 2000.000 0.000 0.835 3000.000 0.000 1.505
81 1350.00 1200.00 94 235 199 0.835 2000.000 0.000 0.835 3000.000 0.000 1.505
82 1366.67 1200.00 91 262 235 0.835 2000.000 0.000 0.835 3000.000 0.000 1.505
83 1383.34 1200.00 80 244 228 0.835 2000.000 0.000 0.835 3000.000 0.000 1.505
84 1400.00 1200.00 83 237 222 0.835 2000.000 0.000 0.835 3000.000 0.000 1.505
85 1416.67 1200.00 85 221 208 0.835 2000.000 0.000 0.835 3000.000 0.000 1.505
86 1433.34 1200.00 95 257 184 0.835 2000.000 0.000 0.835 3000.000 0.000 1.505
87 1450.00 1200.00 83 258 196 0.835 2000.000 0.000 0.835 3000.000 0.000 1.505
88 1466.67 1200.00 84 237 201 0.835 2000.000 0.000 0.835 3000.000 0.000 1.505
89 1483.34 1200.00 73 231 203 0.835 2000.000 0.000 0.835 3000.000 0.000 1.505
90 1500.00 1200.00 86 223 167 0.835 2000.000 0.000 0.835 3000.000 0.000 1.505
91 1516.67 1200.00 76 254 203 0.835 2000.000 0.000 0.835 3000.000 0.000 1.505
92 1533.34 1200.00 75 241 195 0.835 2000.000 0.000 0.835 3000.000 0.000 1.505
93 1550.00 1200.00 73 207 206 0.835 2000.000 0.000 0.835 3000.000 0.000 1.505
94 1566.67 1200.00 68 253 222 0.835 2000.000 0.000 0.835 3000.000 0.000 1.505
95 1583.34 1200.00 84 210 226 0.835 2000.000 0.000 0.835 3000.000 0.000 1.505
96 1600.00 1200.00 61 247 221 0.835 2000.000 0.000 0.835 3000.000 0.000 1.505
97 1616.67 1200.00 60 257 234 0.835 2000.000 0.000 0.835 3000.000 0.000 1.505
98 1633.34 1200.00 77 269 241 0.835 2000.000 0.000 0.835 3000.000 0.000 1.505
99 1650.00 1200.00 68 299 232 0.835 2000.000 0.000 0.835 3000.000 0.000 1.505
100 1666.67 1200.00 76 274 205 0.835 2000.000 0.000 0.835 3000.000 0.000 1.505
101 1683.34 1200.00 79 302 207 0.835 2000.000 0.000 0.835 3000.000 0.000 1.505
102 1700.00 1200.00 84 271 230 0.835 2000.000 0.000 0.835 3000.000 0.000 1.505
103 1716.67 1200.00 79 327 224 0.835 2000.000 0.000 0.835 3000.000 0.000 1.505
104 1733.34 1200.00 79 299 203 0.835 2000.000 0.000 0.835 3000.000 0.000 1.505
105 1750.00 1200.00 77 289 218 0.835 2000.000 0.000 0.835 3000.000 0.000 1.505
106 1766.67 1200.00 77 279 223 0.835 2000.000 0.000 0.835 3000.000 0.000 1.505
107 1783.34 1200.00 89 248 223 0.835 2000.000 0.000 0.835 3000.000 0.000 1.505
108 1800.00 1200.00 76 245 211 0.835 2000.000 0.000 0.835 3000.000 0.000 1.505
109 1816.67 1200.00 90 217 202 0.835 2000.000 0.000 0.835 3000.000 0.000 1.505
110 1833.34 1200.00 87 251 204 0.835 2000.000 0.000 0.835 3000.000 0.000 1.505
111 1850.00 1200.00 79 199 220 0.835 2000.000 0.000 0.835 3000.000 0.000 1.505
112 1866.67 1200.00 73 225 175 0.835 2000.000 0.000 0.835 3000.000 0.000 1.505
113 1883.34 1200.00 72 269 201 0.835 2000.000 0.000 0.835 3000.000 0.000 1.505
114 1900.00 1200.00 72 239 167 0.835 2000.000 0.000 0.835 3000.000 0.000 1.505
115 1916.67 1200.00 89 241 213 0.835 2000.000 0.000 0.835 3000.000 0.000 1.505
116 1933.34 1200.00 84 269 213 0.835 2000.000 0.000 0.835 3000.000 0.000 1.505
117 1950.00 1200.00 87 243 217 0.835 2000.000 0.000 0.835 3000.000 0.000 1.505
118 1966.67 1200.00 80 241 241 0.835 2000.000 0.000 0.835 3000.000 0.000 1.505
119 1983.34 1200.00 90 211 195 0.835 2000.000 0.000 0.835 3000.000 0.000 1.505
