# BinNR microsec tot-time (s)  O-Beam H-beam AUX Ampl1(V) f1(Hz) phase1(deg) Ampl1(V) f1(Hz) phase1(deg) chi(pos)
0 0.00 1200.00 95 247 251 0.835 2000.000 0.000 0.835 3000.000 0.000 1.362
1 16.67 1200.00 65 233 245 0.835 2000.000 0.000 0.835 3000.000 0.000 1.362
2 33.33 1200.00 81 235 219 0.835 2000.000 0.000 0.835 3000.000 0.000 1.362
3 50.00 1200.00 80 215 215 0.835 2000.000 0.000 0.835 3000.000 0.000 1.362
4 66.67 1200.00 91 228 235 0.835 2000.000 0.000 0.835 3000.000 0.000 1.362
5 83.33 1200.00 84 254 219 0.835 2000.000 0.000 0.835 3000.000 0.000 1.362
6 100.00 1200.00 83 254 238 0.835 2000.000 0.000 0.835 3000.000 0.000 1.362
7 116.67 1200.00 79 260 217 0.835 2000.000 0.000 0.835 3000.000 0.000 1.362
8 133.33 1200.00 77 267 226 0.835 2000.000 0.000 0.835 3000.000 0.000 1.362
9 150.00 1200.00 83 258 210 0.835 2000.000 0.000 0.835 3000.000 0.000 1.362
10 166.67 1200.00 84 238 226 0.835 2000.000 0.000 0.835 3000.000 0.000 1.362
11 183.33 1200.00 86 267 230 0.835 2000.000 0.000 0.835 3000.000 0.000 1.362
12 200.00 1200.00 70 241 232 0.835 2000.000 0.000 0.835 3000.000 0.000 1.362
13 216.67 1200.00 69 210 229 0.835 2000.000 0.000 0.835 3000.000 0.000 1.362
14 233.33 1200.00 77 224 216 0.835 2000.000 0.000 0.835 3000.000 0.000 1.362
15 250.00 1200.00 71 239 243 0.835 2000.000 0.000 0.835 3000.000 0.000 1.362
16 266.67 1200.00 70 218 235 0.835 2000.000 0.000 0.835 3000.000 0.000 1.362
17 283.33 1200.00 90 225 234 0.835 2000.000 0.000 0.835 3000.000 0.000 1.362
18 300.00 1200.00 75 227 232 0.835 2000.000 0.000 0.835 3000.000 0.000 1.362
19 316.67 1200.00 90 238 216 0.835 2000.000 0.000 0.835 3000.000 0.000 1.362
20 333.33 1200.00 72 251 215 0.835 2000.000 0.000 0.835 3000.000 0.000 1.362
21 350.00 1200.00 83 257 236 0.835 2000.000 0.000 0.835 3000.000 0.000 1.362
22 366.67 1200.00 69 225 232 0.835 2000.000 0.000 0.835 3000.000 0.000 1.362
23 383.33 1200.00 94 245 223 0.835 2000.000 0.000 0.835 3000.000 0.000 1.362
24 400.00 1200.00 57 201 249 0.835 2000.000 0.000 0.835 3000.000 0.000 1.362
25 416.67 1200.00 92 241 221 0.835 2000.000 0.000 0.835 3000.000 0.000 1.362
26 433.33 1200.00 81 227 204 0.835 2000.000 0.000 0.835 3000.000 0.000 1.362
27 450.00 1200.00 87 248 229 0.835 2000.000 0.000 0.835 3000.000 0.000 1.362
28 466.67 1200.00 74 231 235 0.835 2000.000 0.000 0.835 3000.000 0.000 1.362
29 483.33 1200.00 84 237 224 0.835 2000.000 0.000 0.835 3000.000 0.000 1.362
30 500.00 1200.00 78 213 201 0.835 2000.000 0.000 0.835 3000.000 0.000 1.362
31 516.67 1200.00 74 250 219 0.835 2000.000 0.000 0.835 3000.000 0.000 1.362
32 533.33 1200.00 97 235 220 0.835 2000.000 0.000 0.835 3000.000 0.000 1.362
33 550.00 1200.00 87 233 230 0.835 2000.000 0.000 0.835 3000.000 0.000 1.362
34 566.67 1200.00 72 259 221 0.835 2000.000 0.000 0.835 3000.000 0.000 1.362
35 583.33 1200.00 88 239 202 0.835 2000.000 0.000 0.835 3000.000 0.000 1.362
36 600.00 1200.00 79 214 229 0.835 2000.000 0.000 0.835 3000.000 0.000 1.362
37 616.67 1200.00 80 215 228 0.835 2000.000 0.000 0.835 3000.000 0.000 1.362
38 633.33 1200.00 87 242 195 0.835 2000.000 0.000 0.835 3000.000 0.000 1.362
39 650.00 1200.00 82 267 199 0.835 2000.000 0.000 0.835 3000.000 0.000 1.362
40 666.67 1200.00 84 257 206 0.835 2000.000 0.000 0.835 3000.000 0.000 1.362
41 683.33 1200.00 79 239 178 0.835 2000.000 0.000 0.835 3000.000 0.000 1.362
42 700.00 1200.00 88 231 179 0.835 2000.000 0.000 0.835 3000.000 0.000 1.362
43 716.67 1200.00 83 280 190 0.835 2000.000 0.000 0.835 3000.000 0.000 1.362
44 733.33 1200.00 94 237 210 0.835 2000.000 0.000 0.835 3000.000 0.000 1.362
45 750.00 1200.00 78 276 213 0.835 2000.000 0.000 0.835 3000.000 0.000 1.362
46 766.67 1200.00 83 257 245 0.835 2000.000 0.000 0.835 3000.000 0.000 1.362
47 783.33 1200.00 80 255 259 0.835 2000.000 0.000 0.835 3000.000 0.000 1.362
48 800.00 1200.00 78 232 220 0.835 2000.000 0.000 0.835 3000.000 0.000 1.362
49 816.67 1200.00 97 252 205 0.835 2000.000 0.000 0.835 3000.000 0.000 1.362
50 833.34 1200.00 77 228 225 0.835 2000.000 0.000 0.835 3000.000 0.000 1.362
51 850.00 1200.00 86 276 235 0.835 2000.000 0.000 0.835 3000.000 0.000 1.362
52 866.67 1200.00 100 275 239 0.835 2000.000 0.000 0.835 3000.000 0.000 1.362
53 883.34 1200.00 72 282 195 0.835 2000.000 0.000 0.835 3000.000 0.000 1.362
54 900.00 1200.00 93 293 205 0.835 2000.000 0.000 0.835 3000.000 0.000 1.362
55 916.67 1200.00 77 324 211 0.835 2000.000 0.000 0.835 3000.000 0.000 1.362
56 933.34 1200.00 81 322 246 0.835 2000.000 0.000 0.835 3000.000 0.000 1.362
57 950.00 1200.00 106 263 253 0.835 2000.000 0.000 0.835 3000.000 0.000 1.362
58 966.67 1200.00 74 250 239 0.835 2000.000 0.000 0.835 3000.000 0.000 1.362
59 983.34 1200.00 75 248 192 0.835 2000.000 0.000 0.835 3000.000 0.000 1.362
60 1000.00 1200.00 75 254 228 0.835 2000.000 0.000 0.835 3000.000 0.000 1.362
61 1016.67 1200.00 93 235 207 0.835 2000.000 0.000 0.835 3000.000 0.000 1.362
62 1033.34 1200.00 99 251 228 0.835 2000.000 0.000 0.835 3000.000 0.000 1.362
63 1050.00 1200.00 79 227 239 0.835 2000.000 0.000 0.835 3000.000 0.000 1.362
64 1066.67 1200.00 83 245 241 0.835 2000.000 0.000 0.835 3000.000 0.000 1.362
65 1083.34 1200.00 86 259 214 0.835 2000.000 0.000 0.835 3000.000 0.000 1.362
66 1100.00 1200.00 88 236 228 0.835 2000.000 0.000 0.835 3000.000 0.000 1.362
67 1116.67 1200.00 97 252 257 0.835 2000.000 0.000 0.835 3000.000 0.000 1.362
68 1133.34 1200.00 91 235 202 0.835 2000.000 0.000 0.835 3000.000 0.000 1.362
69 1150.00 1200.00 84 223 224 0.835 2000.000 0.000 0.835 3000.000 0.000 1.362
70 1166.67 1200.00 65 218 221 0.835 2000.000 0.000 0.835 3000.000 0.000 1.362
71 1183.34 1200.00 82 239 255 0.835 2000.000 0.000 0.835 3000.000 0.000 1.362
72 1200.00 1200.00 65 230 229 0.835 2000.000 0.000 0.835 3000.000 0.000 1.362
73 1216.67 1200.00 85 201 205 0.835 2000.000 0.000 0.835 3000.000 0.000 1.362
74 1233.34 1200.00 67 235 235 0.835 2000.000 0.000 0.835 3000.000 0.000 1.362
75 1250.00 1200.00 85 242 240 0.835 2000.000 0.000 0.835 3000.000 0.000 1.362
76 1266.67 1200.00 78 244 206 0.835 2000.000 0.000 0.835 3000.000 0.000 1.362
77 1283.34 1200.00 91 250 204 0.835 2000.000 0.000 0.835 3000.000 0.000 1.362
78 1300.00 1200.00 82 276 229 0.835 2000.000 0.000 0.835 3000.000 0.000 1.362
79 1316.67 1200.00 77 248 206 0.835 2000.000 0.000 0.835 3000.000 0.000 1.362
80 1333.34 1200.00 84 232 221 0.835 2000.000 0.000 0.835 3000.000 0.000 1.362
81 1350.00 1200.00 97 247 214 0.835 2000.000 0.000 0.835 3000.000 0.000 1.362
82 1366.67 1200.00 80 263 238 0.835 2000.000 0.000 0.835 3000.000 0.000 1.362
83 1383.34 1200.00 85 237 237 0.835 2000.000 0.000 0.835 3000.000 0.000 1.362
84 1400.00 1200.00 76 244 228 0.835 2000.000 0.000 0.835 3000.000 0.000 1.362
85 1416.67 1200.00 70 244 220 0.835 2000.000 0.000 0.835 3000.000 0.000 1.362
86 1433.34 1200.00 69 218 230 0.835 2000.000 0.000 0.835 3000.000 0.000 1.362
87 1450.00 1200.00 71 225 236 0.835 2000.000 0.000 0.835 3000.000 0.000 1.362
88 1466.67 1200.00 81 264 235 0.835 2000.000 0.000 0.835 3000.000 0.000 1.362
89 1483.34 1200.00 79 250 237 0.835 2000.000 0.000 0.835 3000.000 0.000 1.362
90 1500.00 1200.00 92 246 211 0.835 2000.000 0.000 0.835 3000.000 0.000 1.362
91 1516.67 1200.00 80 241 222 0.835 2000.000 0.000 0.835 3000.000 0.000 1.362
92 1533.34 1200.00 75 242 226 0.835 2000.000 0.000 0.835 3000.000 0.000 1.362
93 1550.00 1200.00 99 257 247 0.835 2000.000 0.000 0.835 3000.000 0.000 1.362
94 1566.67 1200.00 91 261 249 0.835 2000.000 0.000 0.835 3000.000 0.000 1.362
95 1583.34 1200.00 63 234 248 0.835 2000.000 0.000 0.835 3000.000 0.000 1.362
96 1600.00 1200.00 94 248 214 0.835 2000.000 0.000 0.835 3000.000 0.000 1.362
97 1616.67 1200.00 72 245 218 0.835 2000.000 0.000 0.835 3000.000 0.000 1.362
98 1633.34 1200.00 84 242 219 0.835 2000.000 0.000 0.835 3000.000 0.000 1.362
99 1650.00 1200.00 87 243 213 0.835 2000.000 0.000 0.835 3000.000 0.000 1.362
100 1666.67 1200.00 83 266 184 0.835 2000.000 0.000 0.835 3000.000 0.000 1.362
101 1683.34 1200.00 80 258 180 0.835 2000.000 0.000 0.835 3000.000 0.000 1.362
102 1700.00 1200.00 75 262 191 0.835 2000.000 0.000 0.835 3000.000 0.000 1.362
103 1716.67 1200.00 108 258 181 0.835 2000.000 0.000 0.835 3000.000 0.000 1.362
104 1733.34 1200.00 83 251 241 0.835 2000.000 0.000 0.835 3000.000 0.000 1.362
105 1750.00 1200.00 82 236 213 0.835 2000.000 0.000 0.835 3000.000 0.000 1.362
106 1766.67 1200.00 72 223 203 0.835 2000.000 0.000 0.835 3000.000 0.000 1.362
107 1783.34 1200.00 88 225 231 0.835 2000.000 0.000 0.835 3000.000 0.000 1.362
108 1800.00 1200.00 81 210 214 0.835 2000.000 0.000 0.835 3000.000 0.000 1.362
109 1816.67 1200.00 80 242 239 0.835 2000.000 0.000 0.835 3000.000 0.000 1.362
110 1833.34 1200.00 62 241 230 0.835 2000.000 0.000 0.835 3000.000 0.000 1.362
111 1850.00 1200.00 82 302 220 0.835 2000.000 0.000 0.835 3000.000 0.000 1.362
112 1866.67 1200.00 87 265 198 0.835 2000.000 0.000 0.835 3000.000 0.000 1.362
113 1883.34 1200.00 70 270 216 0.835 2000.000 0.000 0.835 3000.000 0.000 1.362
114 1900.00 1200.00 68 295 207 0.835 2000.000 0.000 0.835 3000.000 0.000 1.362
115 1916.67 1200.00 93 258 235 0.835 2000.000 0.000 0.835 3000.000 0.000 1.362
116 1933.34 1200.00 69 272 224 0.835 2000.000 0.000 0.835 3000.000 0.000 1.362
117 1950.00 1200.00 85 243 231 0.835 2000.000 0.000 0.835 3000.000 0.000 1.362
118 1966.67 1200.00 79 267 218 0.835 2000.000 0.000 0.835 3000.000 0.000 1.362
119 1983.34 1200.00 79 245 215 0.835 2000.000 0.000 0.835 3000.000 0.000 1.362
