# BinNR microsec tot-time (s)  O-Beam AUX Ampl(V) f(Hz) phase(deg) chi(pos)
0 0.00 1200.00 101 129 1.100 10000.000 0.000 0.000
1 3.00 1200.00 200 257 1.100 10000.000 0.000 0.000
2 6.00 1200.00 209 265 1.100 10000.000 0.000 0.000
3 9.00 1200.00 193 262 1.100 10000.000 0.000 0.000
4 12.00 1200.00 209 340 1.100 10000.000 0.000 0.000
5 15.00 1200.00 210 317 1.100 10000.000 0.000 0.000
6 18.00 1200.00 213 343 1.100 10000.000 0.000 0.000
7 21.00 1200.00 201 352 1.100 10000.000 0.000 0.000
8 24.00 1200.00 217 332 1.100 10000.000 0.000 0.000
9 27.00 1200.00 208 341 1.100 10000.000 0.000 0.000
10 30.00 1200.00 214 332 1.100 10000.000 0.000 0.000
11 33.00 1200.00 197 323 1.100 10000.000 0.000 0.000
12 36.00 1200.00 197 297 1.100 10000.000 0.000 0.000
13 39.00 1200.00 200 271 1.100 10000.000 0.000 0.000
14 42.00 1200.00 200 267 1.100 10000.000 0.000 0.000
15 45.00 1200.00 191 257 1.100 10000.000 0.000 0.000
16 48.00 1200.00 201 290 1.100 10000.000 0.000 0.000
17 51.00 1200.00 187 270 1.100 10000.000 0.000 0.000
18 54.00 1200.00 209 277 1.100 10000.000 0.000 0.000
19 57.00 1200.00 176 287 1.100 10000.000 0.000 0.000
20 60.00 1200.00 179 284 1.100 10000.000 0.000 0.000
21 63.00 1200.00 170 329 1.100 10000.000 0.000 0.000
22 66.00 1200.00 170 297 1.100 10000.000 0.000 0.000
23 69.00 1200.00 147 339 1.100 10000.000 0.000 0.000
24 72.00 1200.00 170 366 1.100 10000.000 0.000 0.000
25 75.00 1200.00 182 358 1.100 10000.000 0.000 0.000
26 78.00 1200.00 167 382 1.100 10000.000 0.000 0.000
27 81.00 1200.00 167 388 1.100 10000.000 0.000 0.000
28 84.00 1200.00 163 379 1.100 10000.000 0.000 0.000
29 87.00 1200.00 157 386 1.100 10000.000 0.000 0.000
30 90.00 1200.00 158 402 1.100 10000.000 0.000 0.000
31 93.00 1200.00 192 399 1.100 10000.000 0.000 0.000
32 96.00 1200.00 178 390 1.100 10000.000 0.000 0.000
33 99.00 1200.00 175 395 1.100 10000.000 0.000 0.000
34 102.00 1200.00 204 384 1.100 10000.000 0.000 0.000
35 105.00 1200.00 198 367 1.100 10000.000 0.000 0.000
36 108.00 1200.00 208 386 1.100 10000.000 0.000 0.000
37 111.00 1200.00 203 323 1.100 10000.000 0.000 0.000
38 114.00 1200.00 182 305 1.100 10000.000 0.000 0.000
39 117.00 1200.00 220 305 1.100 10000.000 0.000 0.000
40 120.00 1200.00 196 281 1.100 10000.000 0.000 0.000
41 123.00 1200.00 223 303 1.100 10000.000 0.000 0.000
42 126.00 1200.00 244 286 1.100 10000.000 0.000 0.000
43 129.00 1200.00 189 269 1.100 10000.000 0.000 0.000
44 132.00 1200.00 214 255 1.100 10000.000 0.000 0.000
45 135.00 1200.00 208 218 1.100 10000.000 0.000 0.000
46 138.00 1200.00 198 250 1.100 10000.000 0.000 0.000
47 141.00 1200.00 177 254 1.100 10000.000 0.000 0.000
48 144.00 1200.00 189 251 1.100 10000.000 0.000 0.000
49 147.00 1200.00 174 248 1.100 10000.000 0.000 0.000
50 150.00 1200.00 191 264 1.100 10000.000 0.000 0.000
51 153.00 1200.00 208 271 1.100 10000.000 0.000 0.000
52 156.00 1200.00 197 253 1.100 10000.000 0.000 0.000
53 159.00 1200.00 172 303 1.100 10000.000 0.000 0.000
54 162.00 1200.00 171 387 1.100 10000.000 0.000 0.000
55 165.00 1200.00 168 312 1.100 10000.000 0.000 0.000
56 168.00 1200.00 166 339 1.100 10000.000 0.000 0.000
57 171.00 1200.00 144 324 1.100 10000.000 0.000 0.000
58 174.00 1200.00 153 379 1.100 10000.000 0.000 0.000
59 177.00 1200.00 179 379 1.100 10000.000 0.000 0.000
60 180.00 1200.00 157 384 1.100 10000.000 0.000 0.000
61 183.00 1200.00 159 403 1.100 10000.000 0.000 0.000
62 186.00 1200.00 171 354 1.100 10000.000 0.000 0.000
63 189.00 1200.00 177 390 1.100 10000.000 0.000 0.000
64 192.00 1200.00 198 377 1.100 10000.000 0.000 0.000
65 195.00 1200.00 189 362 1.100 10000.000 0.000 0.000
66 198.00 1200.00 195 406 1.100 10000.000 0.000 0.000
67 201.00 1200.00 181 367 1.100 10000.000 0.000 0.000
68 204.00 1200.00 187 344 1.100 10000.000 0.000 0.000
69 207.00 1200.00 192 346 1.100 10000.000 0.000 0.000
70 210.00 1200.00 210 366 1.100 10000.000 0.000 0.000
71 213.00 1200.00 215 305 1.100 10000.000 0.000 0.000
72 216.00 1200.00 204 301 1.100 10000.000 0.000 0.000
73 219.00 1200.00 196 311 1.100 10000.000 0.000 0.000
74 222.00 1200.00 207 262 1.100 10000.000 0.000 0.000
75 225.00 1200.00 234 259 1.100 10000.000 0.000 0.000
76 228.00 1200.00 203 272 1.100 10000.000 0.000 0.000
77 231.00 1200.00 250 237 1.100 10000.000 0.000 0.000
78 234.00 1200.00 215 239 1.100 10000.000 0.000 0.000
79 237.00 1200.00 186 275 1.100 10000.000 0.000 0.000
80 240.00 1200.00 208 266 1.100 10000.000 0.000 0.000
81 243.00 1200.00 192 257 1.100 10000.000 0.000 0.000
82 246.00 1200.00 214 258 1.100 10000.000 0.000 0.000
83 249.00 1200.00 208 269 1.100 10000.000 0.000 0.000
84 252.00 1200.00 163 269 1.100 10000.000 0.000 0.000
85 255.00 1200.00 172 318 1.100 10000.000 0.000 0.000
86 258.00 1200.00 194 290 1.100 10000.000 0.000 0.000
87 261.00 1200.00 187 311 1.100 10000.000 0.000 0.000
88 264.00 1200.00 175 296 1.100 10000.000 0.000 0.000
89 267.00 1200.00 161 312 1.100 10000.000 0.000 0.000
90 270.00 1200.00 180 302 1.100 10000.000 0.000 0.000
91 273.00 1200.00 180 368 1.100 10000.000 0.000 0.000
92 276.00 1200.00 173 392 1.100 10000.000 0.000 0.000
93 279.00 1200.00 158 335 1.100 10000.000 0.000 0.000
94 282.00 1200.00 182 367 1.100 10000.000 0.000 0.000
95 285.00 1200.00 202 393 1.100 10000.000 0.000 0.000
96 288.00 1200.00 198 400 1.100 10000.000 0.000 0.000
97 291.00 1200.00 211 411 1.100 10000.000 0.000 0.000
98 294.00 1200.00 184 378 1.100 10000.000 0.000 0.000
99 297.00 1200.00 177 365 1.100 10000.000 0.000 0.000
100 300.00 1200.00 179 364 1.100 10000.000 0.000 0.000
101 303.00 1200.00 166 365 1.100 10000.000 0.000 0.000
102 306.00 1200.00 187 368 1.100 10000.000 0.000 0.000
103 309.00 1200.00 168 337 1.100 10000.000 0.000 0.000
104 312.00 1200.00 171 354 1.100 10000.000 0.000 0.000
105 315.00 1200.00 166 319 1.100 10000.000 0.000 0.000
106 318.00 1200.00 156 321 1.100 10000.000 0.000 0.000
107 321.00 1200.00 185 299 1.100 10000.000 0.000 0.000
108 324.00 1200.00 177 320 1.100 10000.000 0.000 0.000
109 327.00 1200.00 182 244 1.100 10000.000 0.000 0.000
110 330.00 1200.00 180 300 1.100 10000.000 0.000 0.000
111 333.00 1200.00 173 261 1.100 10000.000 0.000 0.000
112 336.00 1200.00 154 282 1.100 10000.000 0.000 0.000
113 339.00 1200.00 189 229 1.100 10000.000 0.000 0.000
114 342.00 1200.00 188 250 1.100 10000.000 0.000 0.000
115 345.00 1200.00 198 261 1.100 10000.000 0.000 0.000
116 348.00 1200.00 214 282 1.100 10000.000 0.000 0.000
117 351.00 1200.00 198 250 1.100 10000.000 0.000 0.000
118 354.00 1200.00 206 312 1.100 10000.000 0.000 0.000
119 357.00 1200.00 226 257 1.100 10000.000 0.000 0.000
120 360.00 1200.00 193 303 1.100 10000.000 0.000 0.000
121 363.00 1200.00 197 304 1.100 10000.000 0.000 0.000
122 366.00 1200.00 205 325 1.100 10000.000 0.000 0.000
123 369.00 1200.00 192 323 1.100 10000.000 0.000 0.000
124 372.00 1200.00 207 365 1.100 10000.000 0.000 0.000
125 375.00 1200.00 234 385 1.100 10000.000 0.000 0.000
126 378.00 1200.00 173 402 1.100 10000.000 0.000 0.000
127 381.00 1200.00 207 400 1.100 10000.000 0.000 0.000
128 384.00 1200.00 209 410 1.100 10000.000 0.000 0.000
129 387.00 1200.00 176 386 1.100 10000.000 0.000 0.000
130 390.00 1200.00 178 420 1.100 10000.000 0.000 0.000
131 393.00 1200.00 161 394 1.100 10000.000 0.000 0.000
132 396.00 1200.00 192 397 1.100 10000.000 0.000 0.000
133 399.00 1200.00 171 379 1.100 10000.000 0.000 0.000
134 402.00 1200.00 159 404 1.100 10000.000 0.000 0.000
135 405.00 1200.00 159 360 1.100 10000.000 0.000 0.000
136 408.00 1200.00 186 357 1.100 10000.000 0.000 0.000
137 411.00 1200.00 162 286 1.100 10000.000 0.000 0.000
138 414.00 1200.00 174 319 1.100 10000.000 0.000 0.000
139 417.00 1200.00 163 302 1.100 10000.000 0.000 0.000
140 420.00 1200.00 197 286 1.100 10000.000 0.000 0.000
141 423.00 1200.00 175 278 1.100 10000.000 0.000 0.000
142 426.00 1200.00 192 282 1.100 10000.000 0.000 0.000
143 429.00 1200.00 186 245 1.100 10000.000 0.000 0.000
144 432.00 1200.00 170 272 1.100 10000.000 0.000 0.000
