# BinNR microsec tot-time (s)  O-Beam AUX Ampl(V) f(Hz) phase(deg) chi(pos)
0 0.00 1200.00 34 53 1.100 10000.000 0.000 0.330
1 3.00 1200.00 78 90 1.100 10000.000 0.000 0.330
2 6.00 1200.00 111 103 1.100 10000.000 0.000 0.330
3 9.00 1200.00 83 88 1.100 10000.000 0.000 0.330
4 12.00 1200.00 85 101 1.100 10000.000 0.000 0.330
5 15.00 1200.00 108 91 1.100 10000.000 0.000 0.330
6 18.00 1200.00 106 103 1.100 10000.000 0.000 0.330
7 21.00 1200.00 99 89 1.100 10000.000 0.000 0.330
8 24.00 1200.00 98 113 1.100 10000.000 0.000 0.330
9 27.00 1200.00 94 97 1.100 10000.000 0.000 0.330
10 30.00 1200.00 108 88 1.100 10000.000 0.000 0.330
11 33.00 1200.00 75 82 1.100 10000.000 0.000 0.330
12 36.00 1200.00 93 92 1.100 10000.000 0.000 0.330
13 39.00 1200.00 103 87 1.100 10000.000 0.000 0.330
14 42.00 1200.00 91 98 1.100 10000.000 0.000 0.330
15 45.00 1200.00 86 84 1.100 10000.000 0.000 0.330
16 48.00 1200.00 81 97 1.100 10000.000 0.000 0.330
17 51.00 1200.00 82 103 1.100 10000.000 0.000 0.330
18 54.00 1200.00 85 93 1.100 10000.000 0.000 0.330
19 57.00 1200.00 82 95 1.100 10000.000 0.000 0.330
20 60.00 1200.00 95 96 1.100 10000.000 0.000 0.330
21 63.00 1200.00 92 97 1.100 10000.000 0.000 0.330
22 66.00 1200.00 71 102 1.100 10000.000 0.000 0.330
23 69.00 1200.00 65 114 1.100 10000.000 0.000 0.330
24 72.00 1200.00 60 102 1.100 10000.000 0.000 0.330
25 75.00 1200.00 78 124 1.100 10000.000 0.000 0.330
26 78.00 1200.00 77 103 1.100 10000.000 0.000 0.330
27 81.00 1200.00 70 91 1.100 10000.000 0.000 0.330
28 84.00 1200.00 83 97 1.100 10000.000 0.000 0.330
29 87.00 1200.00 76 89 1.100 10000.000 0.000 0.330
30 90.00 1200.00 82 112 1.100 10000.000 0.000 0.330
31 93.00 1200.00 79 96 1.100 10000.000 0.000 0.330
32 96.00 1200.00 93 92 1.100 10000.000 0.000 0.330
33 99.00 1200.00 84 115 1.100 10000.000 0.000 0.330
34 102.00 1200.00 80 112 1.100 10000.000 0.000 0.330
35 105.00 1200.00 92 106 1.100 10000.000 0.000 0.330
36 108.00 1200.00 82 94 1.100 10000.000 0.000 0.330
37 111.00 1200.00 98 91 1.100 10000.000 0.000 0.330
38 114.00 1200.00 99 89 1.100 10000.000 0.000 0.330
39 117.00 1200.00 84 84 1.100 10000.000 0.000 0.330
40 120.00 1200.00 91 93 1.100 10000.000 0.000 0.330
41 123.00 1200.00 88 108 1.100 10000.000 0.000 0.330
42 126.00 1200.00 90 94 1.100 10000.000 0.000 0.330
43 129.00 1200.00 89 107 1.100 10000.000 0.000 0.330
44 132.00 1200.00 98 98 1.100 10000.000 0.000 0.330
45 135.00 1200.00 86 81 1.100 10000.000 0.000 0.330
46 138.00 1200.00 105 94 1.100 10000.000 0.000 0.330
47 141.00 1200.00 89 94 1.100 10000.000 0.000 0.330
48 144.00 1200.00 85 89 1.100 10000.000 0.000 0.330
49 147.00 1200.00 105 96 1.100 10000.000 0.000 0.330
50 150.00 1200.00 72 94 1.100 10000.000 0.000 0.330
51 153.00 1200.00 78 93 1.100 10000.000 0.000 0.330
52 156.00 1200.00 79 89 1.100 10000.000 0.000 0.330
53 159.00 1200.00 63 119 1.100 10000.000 0.000 0.330
54 162.00 1200.00 82 98 1.100 10000.000 0.000 0.330
55 165.00 1200.00 72 111 1.100 10000.000 0.000 0.330
56 168.00 1200.00 86 99 1.100 10000.000 0.000 0.330
57 171.00 1200.00 71 87 1.100 10000.000 0.000 0.330
58 174.00 1200.00 66 98 1.100 10000.000 0.000 0.330
59 177.00 1200.00 71 94 1.100 10000.000 0.000 0.330
60 180.00 1200.00 71 101 1.100 10000.000 0.000 0.330
61 183.00 1200.00 86 98 1.100 10000.000 0.000 0.330
62 186.00 1200.00 75 88 1.100 10000.000 0.000 0.330
63 189.00 1200.00 81 102 1.100 10000.000 0.000 0.330
64 192.00 1200.00 69 89 1.100 10000.000 0.000 0.330
65 195.00 1200.00 89 110 1.100 10000.000 0.000 0.330
66 198.00 1200.00 80 102 1.100 10000.000 0.000 0.330
67 201.00 1200.00 71 108 1.100 10000.000 0.000 0.330
68 204.00 1200.00 89 127 1.100 10000.000 0.000 0.330
69 207.00 1200.00 76 111 1.100 10000.000 0.000 0.330
70 210.00 1200.00 82 99 1.100 10000.000 0.000 0.330
71 213.00 1200.00 96 97 1.100 10000.000 0.000 0.330
72 216.00 1200.00 92 106 1.100 10000.000 0.000 0.330
73 219.00 1200.00 96 89 1.100 10000.000 0.000 0.330
74 222.00 1200.00 94 118 1.100 10000.000 0.000 0.330
75 225.00 1200.00 76 85 1.100 10000.000 0.000 0.330
76 228.00 1200.00 85 93 1.100 10000.000 0.000 0.330
77 231.00 1200.00 104 97 1.100 10000.000 0.000 0.330
78 234.00 1200.00 95 100 1.100 10000.000 0.000 0.330
79 237.00 1200.00 81 79 1.100 10000.000 0.000 0.330
80 240.00 1200.00 74 98 1.100 10000.000 0.000 0.330
81 243.00 1200.00 85 107 1.100 10000.000 0.000 0.330
82 246.00 1200.00 92 114 1.100 10000.000 0.000 0.330
83 249.00 1200.00 79 99 1.100 10000.000 0.000 0.330
84 252.00 1200.00 86 102 1.100 10000.000 0.000 0.330
85 255.00 1200.00 63 81 1.100 10000.000 0.000 0.330
86 258.00 1200.00 98 100 1.100 10000.000 0.000 0.330
87 261.00 1200.00 85 95 1.100 10000.000 0.000 0.330
88 264.00 1200.00 84 96 1.100 10000.000 0.000 0.330
89 267.00 1200.00 76 92 1.100 10000.000 0.000 0.330
90 270.00 1200.00 78 97 1.100 10000.000 0.000 0.330
91 273.00 1200.00 89 104 1.100 10000.000 0.000 0.330
92 276.00 1200.00 87 97 1.100 10000.000 0.000 0.330
93 279.00 1200.00 77 100 1.100 10000.000 0.000 0.330
94 282.00 1200.00 72 110 1.100 10000.000 0.000 0.330
95 285.00 1200.00 73 124 1.100 10000.000 0.000 0.330
96 288.00 1200.00 68 114 1.100 10000.000 0.000 0.330
97 291.00 1200.00 76 104 1.100 10000.000 0.000 0.330
98 294.00 1200.00 100 109 1.100 10000.000 0.000 0.330
99 297.00 1200.00 73 94 1.100 10000.000 0.000 0.330
100 300.00 1200.00 88 107 1.100 10000.000 0.000 0.330
101 303.00 1200.00 71 104 1.100 10000.000 0.000 0.330
102 306.00 1200.00 92 115 1.100 10000.000 0.000 0.330
103 309.00 1200.00 87 75 1.100 10000.000 0.000 0.330
104 312.00 1200.00 82 76 1.100 10000.000 0.000 0.330
105 315.00 1200.00 65 82 1.100 10000.000 0.000 0.330
106 318.00 1200.00 78 101 1.100 10000.000 0.000 0.330
107 321.00 1200.00 69 96 1.100 10000.000 0.000 0.330
108 324.00 1200.00 77 93 1.100 10000.000 0.000 0.330
109 327.00 1200.00 80 109 1.100 10000.000 0.000 0.330
110 330.00 1200.00 88 119 1.100 10000.000 0.000 0.330
111 333.00 1200.00 71 89 1.100 10000.000 0.000 0.330
112 336.00 1200.00 78 100 1.100 10000.000 0.000 0.330
113 339.00 1200.00 74 91 1.100 10000.000 0.000 0.330
114 342.00 1200.00 90 116 1.100 10000.000 0.000 0.330
115 345.00 1200.00 98 96 1.100 10000.000 0.000 0.330
116 348.00 1200.00 100 75 1.100 10000.000 0.000 0.330
117 351.00 1200.00 92 98 1.100 10000.000 0.000 0.330
118 354.00 1200.00 86 103 1.100 10000.000 0.000 0.330
119 357.00 1200.00 87 105 1.100 10000.000 0.000 0.330
120 360.00 1200.00 104 93 1.100 10000.000 0.000 0.330
121 363.00 1200.00 77 91 1.100 10000.000 0.000 0.330
122 366.00 1200.00 96 88 1.100 10000.000 0.000 0.330
123 369.00 1200.00 95 80 1.100 10000.000 0.000 0.330
124 372.00 1200.00 105 84 1.100 10000.000 0.000 0.330
125 375.00 1200.00 89 106 1.100 10000.000 0.000 0.330
126 378.00 1200.00 87 118 1.100 10000.000 0.000 0.330
127 381.00 1200.00 70 109 1.100 10000.000 0.000 0.330
128 384.00 1200.00 101 98 1.100 10000.000 0.000 0.330
129 387.00 1200.00 82 97 1.100 10000.000 0.000 0.330
130 390.00 1200.00 78 105 1.100 10000.000 0.000 0.330
131 393.00 1200.00 70 112 1.100 10000.000 0.000 0.330
132 396.00 1200.00 97 114 1.100 10000.000 0.000 0.330
133 399.00 1200.00 87 101 1.100 10000.000 0.000 0.330
134 402.00 1200.00 80 104 1.100 10000.000 0.000 0.330
135 405.00 1200.00 60 94 1.100 10000.000 0.000 0.330
136 408.00 1200.00 69 111 1.100 10000.000 0.000 0.330
137 411.00 1200.00 86 119 1.100 10000.000 0.000 0.330
138 414.00 1200.00 69 100 1.100 10000.000 0.000 0.330
139 417.00 1200.00 93 88 1.100 10000.000 0.000 0.330
140 420.00 1200.00 86 93 1.100 10000.000 0.000 0.330
141 423.00 1200.00 80 97 1.100 10000.000 0.000 0.330
142 426.00 1200.00 97 111 1.100 10000.000 0.000 0.330
143 429.00 1200.00 82 92 1.100 10000.000 0.000 0.330
144 432.00 1200.00 69 108 1.100 10000.000 0.000 0.330
