# BinNR microsec tot-time (s)  O-Beam AUX Ampl(V) f(Hz) phase(deg) chi(pos)
0 0.00 1200.01 173 310 1.100 10000.000 0.000 -0.330
1 3.00 1200.01 347 655 1.100 10000.000 0.000 -0.330
2 6.00 1200.01 318 744 1.100 10000.000 0.000 -0.330
3 9.00 1200.01 318 654 1.100 10000.000 0.000 -0.330
4 12.00 1200.01 297 783 1.100 10000.000 0.000 -0.330
5 15.00 1200.01 306 785 1.100 10000.000 0.000 -0.330
6 18.00 1200.01 325 720 1.100 10000.000 0.000 -0.330
7 21.00 1200.01 342 734 1.100 10000.000 0.000 -0.330
8 24.00 1200.01 324 739 1.100 10000.000 0.000 -0.330
9 27.00 1200.01 303 767 1.100 10000.000 0.000 -0.330
10 30.00 1200.01 344 832 1.100 10000.000 0.000 -0.330
11 33.00 1200.01 336 707 1.100 10000.000 0.000 -0.330
12 36.00 1200.01 323 712 1.100 10000.000 0.000 -0.330
13 39.00 1200.01 321 747 1.100 10000.000 0.000 -0.330
14 42.00 1200.01 337 710 1.100 10000.000 0.000 -0.330
15 45.00 1200.01 311 674 1.100 10000.000 0.000 -0.330
16 48.00 1200.01 334 637 1.100 10000.000 0.000 -0.330
17 51.00 1200.01 323 634 1.100 10000.000 0.000 -0.330
18 54.00 1200.01 319 655 1.100 10000.000 0.000 -0.330
19 57.00 1200.01 304 693 1.100 10000.000 0.000 -0.330
20 60.00 1200.01 325 708 1.100 10000.000 0.000 -0.330
21 63.00 1200.01 272 680 1.100 10000.000 0.000 -0.330
22 66.00 1200.01 305 768 1.100 10000.000 0.000 -0.330
23 69.00 1200.01 301 794 1.100 10000.000 0.000 -0.330
24 72.00 1200.01 294 815 1.100 10000.000 0.000 -0.330
25 75.00 1200.01 297 824 1.100 10000.000 0.000 -0.330
26 78.00 1200.01 294 815 1.100 10000.000 0.000 -0.330
27 81.00 1200.01 340 799 1.100 10000.000 0.000 -0.330
28 84.00 1200.01 275 804 1.100 10000.000 0.000 -0.330
29 87.00 1200.01 330 732 1.100 10000.000 0.000 -0.330
30 90.00 1200.01 309 797 1.100 10000.000 0.000 -0.330
31 93.00 1200.01 293 777 1.100 10000.000 0.000 -0.330
32 96.00 1200.01 289 825 1.100 10000.000 0.000 -0.330
33 99.00 1200.01 319 803 1.100 10000.000 0.000 -0.330
34 102.00 1200.01 307 817 1.100 10000.000 0.000 -0.330
35 105.00 1200.01 320 781 1.100 10000.000 0.000 -0.330
36 108.00 1200.01 331 759 1.100 10000.000 0.000 -0.330
37 111.00 1200.01 317 738 1.100 10000.000 0.000 -0.330
38 114.00 1200.01 314 758 1.100 10000.000 0.000 -0.330
39 117.00 1200.01 316 729 1.100 10000.000 0.000 -0.330
40 120.00 1200.01 336 740 1.100 10000.000 0.000 -0.330
41 123.00 1200.01 355 689 1.100 10000.000 0.000 -0.330
42 126.00 1200.01 341 687 1.100 10000.000 0.000 -0.330
43 129.00 1200.01 349 676 1.100 10000.000 0.000 -0.330
44 132.00 1200.01 326 681 1.100 10000.000 0.000 -0.330
45 135.00 1200.01 298 663 1.100 10000.000 0.000 -0.330
46 138.00 1200.01 342 669 1.100 10000.000 0.000 -0.330
47 141.00 1200.01 318 632 1.100 10000.000 0.000 -0.330
48 144.00 1200.01 324 691 1.100 10000.000 0.000 -0.330
49 147.00 1200.01 327 633 1.100 10000.000 0.000 -0.330
50 150.00 1200.01 306 713 1.100 10000.000 0.000 -0.330
51 153.00 1200.01 319 696 1.100 10000.000 0.000 -0.330
52 156.00 1200.01 310 732 1.100 10000.000 0.000 -0.330
53 159.00 1200.01 307 791 1.100 10000.000 0.000 -0.330
54 162.00 1200.01 302 760 1.100 10000.000 0.000 -0.330
55 165.00 1200.01 314 746 1.100 10000.000 0.000 -0.330
56 168.00 1200.01 306 746 1.100 10000.000 0.000 -0.330
57 171.00 1200.01 282 771 1.100 10000.000 0.000 -0.330
58 174.00 1200.01 270 766 1.100 10000.000 0.000 -0.330
59 177.00 1200.01 305 792 1.100 10000.000 0.000 -0.330
60 180.00 1200.01 308 834 1.100 10000.000 0.000 -0.330
61 183.00 1200.01 305 784 1.100 10000.000 0.000 -0.330
62 186.00 1200.01 295 869 1.100 10000.000 0.000 -0.330
63 189.00 1200.01 313 792 1.100 10000.000 0.000 -0.330
64 192.00 1200.01 310 788 1.100 10000.000 0.000 -0.330
65 195.00 1200.01 306 814 1.100 10000.000 0.000 -0.330
66 198.00 1200.01 305 841 1.100 10000.000 0.000 -0.330
67 201.00 1200.01 323 792 1.100 10000.000 0.000 -0.330
68 204.00 1200.01 316 744 1.100 10000.000 0.000 -0.330
69 207.00 1200.01 303 766 1.100 10000.000 0.000 -0.330
70 210.00 1200.01 287 790 1.100 10000.000 0.000 -0.330
71 213.00 1200.01 296 750 1.100 10000.000 0.000 -0.330
72 216.00 1200.01 343 760 1.100 10000.000 0.000 -0.330
73 219.00 1200.01 315 766 1.100 10000.000 0.000 -0.330
74 222.00 1200.01 324 700 1.100 10000.000 0.000 -0.330
75 225.00 1200.01 316 712 1.100 10000.000 0.000 -0.330
76 228.00 1200.01 337 686 1.100 10000.000 0.000 -0.330
77 231.00 1200.01 305 676 1.100 10000.000 0.000 -0.330
78 234.00 1200.01 338 710 1.100 10000.000 0.000 -0.330
79 237.00 1200.01 289 672 1.100 10000.000 0.000 -0.330
80 240.00 1200.01 321 690 1.100 10000.000 0.000 -0.330
81 243.00 1200.01 325 668 1.100 10000.000 0.000 -0.330
82 246.00 1200.01 321 698 1.100 10000.000 0.000 -0.330
83 249.00 1200.01 307 677 1.100 10000.000 0.000 -0.330
84 252.00 1200.01 317 639 1.100 10000.000 0.000 -0.330
85 255.00 1200.01 330 693 1.100 10000.000 0.000 -0.330
86 258.00 1200.01 290 711 1.100 10000.000 0.000 -0.330
87 261.00 1200.01 309 717 1.100 10000.000 0.000 -0.330
88 264.00 1200.01 309 708 1.100 10000.000 0.000 -0.330
89 267.00 1200.01 290 746 1.100 10000.000 0.000 -0.330
90 270.00 1200.01 321 783 1.100 10000.000 0.000 -0.330
91 273.00 1200.01 287 837 1.100 10000.000 0.000 -0.330
92 276.00 1200.01 321 834 1.100 10000.000 0.000 -0.330
93 279.00 1200.01 297 775 1.100 10000.000 0.000 -0.330
94 282.00 1200.01 313 787 1.100 10000.000 0.000 -0.330
95 285.00 1200.01 314 801 1.100 10000.000 0.000 -0.330
96 288.00 1200.01 282 868 1.100 10000.000 0.000 -0.330
97 291.00 1200.01 314 819 1.100 10000.000 0.000 -0.330
98 294.00 1200.01 323 769 1.100 10000.000 0.000 -0.330
99 297.00 1200.01 304 725 1.100 10000.000 0.000 -0.330
100 300.00 1200.01 324 792 1.100 10000.000 0.000 -0.330
101 303.00 1200.01 298 779 1.100 10000.000 0.000 -0.330
102 306.00 1200.01 324 765 1.100 10000.000 0.000 -0.330
103 309.00 1200.01 322 785 1.100 10000.000 0.000 -0.330
104 312.00 1200.01 328 741 1.100 10000.000 0.000 -0.330
105 315.00 1200.01 293 729 1.100 10000.000 0.000 -0.330
106 318.00 1200.01 310 696 1.100 10000.000 0.000 -0.330
107 321.00 1200.01 309 708 1.100 10000.000 0.000 -0.330
108 324.00 1200.01 319 668 1.100 10000.000 0.000 -0.330
109 327.00 1200.01 305 685 1.100 10000.000 0.000 -0.330
110 330.00 1200.01 318 755 1.100 10000.000 0.000 -0.330
111 333.00 1200.01 266 641 1.100 10000.000 0.000 -0.330
112 336.00 1200.01 313 709 1.100 10000.000 0.000 -0.330
113 339.00 1200.01 315 660 1.100 10000.000 0.000 -0.330
114 342.00 1200.01 338 649 1.100 10000.000 0.000 -0.330
115 345.00 1200.01 298 676 1.100 10000.000 0.000 -0.330
116 348.00 1200.01 331 722 1.100 10000.000 0.000 -0.330
117 351.00 1200.01 355 674 1.100 10000.000 0.000 -0.330
118 354.00 1200.01 332 674 1.100 10000.000 0.000 -0.330
119 357.00 1200.01 315 720 1.100 10000.000 0.000 -0.330
120 360.00 1200.01 287 718 1.100 10000.000 0.000 -0.330
121 363.00 1200.01 300 706 1.100 10000.000 0.000 -0.330
122 366.00 1200.01 294 802 1.100 10000.000 0.000 -0.330
123 369.00 1200.01 317 781 1.100 10000.000 0.000 -0.330
124 372.00 1200.01 338 772 1.100 10000.000 0.000 -0.330
125 375.00 1200.01 306 823 1.100 10000.000 0.000 -0.330
126 378.00 1200.01 309 757 1.100 10000.000 0.000 -0.330
127 381.00 1200.01 301 819 1.100 10000.000 0.000 -0.330
128 384.00 1200.01 313 795 1.100 10000.000 0.000 -0.330
129 387.00 1200.01 285 819 1.100 10000.000 0.000 -0.330
130 390.00 1200.01 310 790 1.100 10000.000 0.000 -0.330
131 393.00 1200.01 326 814 1.100 10000.000 0.000 -0.330
132 396.00 1200.01 313 810 1.100 10000.000 0.000 -0.330
133 399.00 1200.01 302 791 1.100 10000.000 0.000 -0.330
134 402.00 1200.01 318 803 1.100 10000.000 0.000 -0.330
135 405.00 1200.01 294 745 1.100 10000.000 0.000 -0.330
136 408.00 1200.01 315 774 1.100 10000.000 0.000 -0.330
137 411.00 1200.01 285 749 1.100 10000.000 0.000 -0.330
138 414.00 1200.01 295 754 1.100 10000.000 0.000 -0.330
139 417.00 1200.01 283 736 1.100 10000.000 0.000 -0.330
140 420.00 1200.01 289 727 1.100 10000.000 0.000 -0.330
141 423.00 1200.01 293 715 1.100 10000.000 0.000 -0.330
142 426.00 1200.01 293 713 1.100 10000.000 0.000 -0.330
143 429.00 1200.01 313 667 1.100 10000.000 0.000 -0.330
144 432.00 1200.01 313 658 1.100 10000.000 0.000 -0.330
