# BinNR microsec tot-time (s)  O-Beam H-beam AUX Ampl(V) f(Hz) phase(deg) chi(pos)
0 0.00 1200.00 221 919 308 0.000 0.172 3000.000 0.352
1 25.00 1200.00 180 975 329 0.000 0.172 3000.000 0.352
2 50.00 1200.00 186 1007 322 0.000 0.172 3000.000 0.352
3 75.00 1200.00 177 1032 274 0.000 0.172 3000.000 0.352
4 100.00 1200.00 173 1024 276 0.000 0.172 3000.000 0.352
5 125.00 1200.00 187 1003 320 0.000 0.172 3000.000 0.352
6 150.00 1200.00 169 1035 296 0.000 0.172 3000.000 0.352
7 175.00 1200.00 153 1024 354 0.000 0.172 3000.000 0.352
8 200.00 1200.00 150 933 359 0.000 0.172 3000.000 0.352
9 225.00 1200.00 147 955 358 0.000 0.172 3000.000 0.352
10 250.00 1200.00 152 854 346 0.000 0.172 3000.000 0.352
11 275.00 1200.00 171 910 374 0.000 0.172 3000.000 0.352
12 300.00 1200.00 178 875 351 0.000 0.172 3000.000 0.352
13 325.00 1200.00 213 930 340 0.000 0.172 3000.000 0.352
14 350.00 1200.00 170 941 288 0.000 0.172 3000.000 0.352
15 375.00 1200.00 182 983 292 0.000 0.172 3000.000 0.352
16 400.00 1200.00 166 1027 293 0.000 0.172 3000.000 0.352
17 425.00 1200.00 188 1016 294 0.000 0.172 3000.000 0.352
18 450.00 1200.00 215 991 291 0.000 0.172 3000.000 0.352
19 475.00 1200.00 162 1045 325 0.000 0.172 3000.000 0.352
20 500.00 1200.00 139 938 351 0.000 0.172 3000.000 0.352
21 525.00 1200.00 162 921 344 0.000 0.172 3000.000 0.352
22 550.00 1200.00 163 913 343 0.000 0.172 3000.000 0.352
23 575.00 1200.00 128 946 340 0.000 0.172 3000.000 0.352
24 600.00 1200.00 156 921 366 0.000 0.172 3000.000 0.352
25 625.00 1200.00 187 901 366 0.000 0.172 3000.000 0.352
26 650.00 1200.00 180 957 326 0.000 0.172 3000.000 0.352
27 675.00 1200.00 211 952 315 0.000 0.172 3000.000 0.352
28 700.00 1200.00 241 914 333 0.000 0.172 3000.000 0.352
29 725.00 1200.00 201 978 328 0.000 0.172 3000.000 0.352
30 750.00 1200.00 199 1026 299 0.000 0.172 3000.000 0.352
31 775.00 1200.00 176 1003 254 0.000 0.172 3000.000 0.352
32 800.00 1200.00 181 1044 296 0.000 0.172 3000.000 0.352
33 825.00 1200.00 149 988 355 0.000 0.172 3000.000 0.352
34 850.00 1200.00 144 905 283 0.000 0.172 3000.000 0.352
35 875.00 1200.00 169 899 350 0.000 0.172 3000.000 0.352
36 900.00 1200.00 178 956 376 0.000 0.172 3000.000 0.352
37 925.00 1200.00 175 861 356 0.000 0.172 3000.000 0.352
38 950.00 1200.00 162 906 351 0.000 0.172 3000.000 0.352
39 975.00 1200.00 155 944 350 0.000 0.172 3000.000 0.352
