# BinNR microsec tot-time (s)  O-Beam H-beam AUX Ampl(V) f(Hz) phase(deg) chi(pos)
0 0.00 1200.00 224 869 446 0.000 0.172 3000.000 1.494
1 25.00 1200.00 186 799 512 0.000 0.172 3000.000 1.494
2 50.00 1200.00 175 750 449 0.000 0.172 3000.000 1.494
3 75.00 1200.00 197 767 480 0.000 0.172 3000.000 1.494
4 100.00 1200.00 202 755 497 0.000 0.172 3000.000 1.494
5 125.00 1200.00 201 770 456 0.000 0.172 3000.000 1.494
6 150.00 1200.00 240 745 445 0.000 0.172 3000.000 1.494
7 175.00 1200.00 228 789 435 0.000 0.172 3000.000 1.494
8 200.00 1200.00 252 840 423 0.000 0.172 3000.000 1.494
9 225.00 1200.00 261 833 394 0.000 0.172 3000.000 1.494
10 250.00 1200.00 212 811 393 0.000 0.172 3000.000 1.494
11 275.00 1200.00 213 832 346 0.000 0.172 3000.000 1.494
12 300.00 1200.00 243 906 372 0.000 0.172 3000.000 1.494
13 325.00 1200.00 224 831 407 0.000 0.172 3000.000 1.494
14 350.00 1200.00 191 876 446 0.000 0.172 3000.000 1.494
15 375.00 1200.00 210 778 447 0.000 0.172 3000.000 1.494
16 400.00 1200.00 207 800 449 0.000 0.172 3000.000 1.494
17 425.00 1200.00 181 721 462 0.000 0.172 3000.000 1.494
18 450.00 1200.00 203 764 415 0.000 0.172 3000.000 1.494
19 475.00 1200.00 222 782 500 0.000 0.172 3000.000 1.494
20 500.00 1200.00 225 761 414 0.000 0.172 3000.000 1.494
21 525.00 1200.00 259 820 463 0.000 0.172 3000.000 1.494
22 550.00 1200.00 240 845 394 0.000 0.172 3000.000 1.494
23 575.00 1200.00 235 874 380 0.000 0.172 3000.000 1.494
24 600.00 1200.00 253 897 409 0.000 0.172 3000.000 1.494
25 625.00 1200.00 217 883 403 0.000 0.172 3000.000 1.494
26 650.00 1200.00 234 819 387 0.000 0.172 3000.000 1.494
27 675.00 1200.00 208 794 385 0.000 0.172 3000.000 1.494
28 700.00 1200.00 179 777 450 0.000 0.172 3000.000 1.494
29 725.00 1200.00 209 807 467 0.000 0.172 3000.000 1.494
30 750.00 1200.00 214 801 436 0.000 0.172 3000.000 1.494
31 775.00 1200.00 195 762 476 0.000 0.172 3000.000 1.494
32 800.00 1200.00 240 734 451 0.000 0.172 3000.000 1.494
33 825.00 1200.00 214 752 436 0.000 0.172 3000.000 1.494
34 850.00 1200.00 253 824 411 0.000 0.172 3000.000 1.494
35 875.00 1200.00 249 841 391 0.000 0.172 3000.000 1.494
36 900.00 1200.00 221 864 391 0.000 0.172 3000.000 1.494
37 925.00 1200.00 226 860 404 0.000 0.172 3000.000 1.494
38 950.00 1200.00 207 853 416 0.000 0.172 3000.000 1.494
39 975.00 1200.00 209 890 437 0.000 0.172 3000.000 1.494
