# BinNR microsec tot-time (s)  O-Beam H-beam AUX Ampl(V) f(Hz) phase(deg) chi(pos)
0 0.00 1200.00 117 1106 245 0.000 0.172 3000.000 -1.505
1 25.00 1200.00 127 1123 213 0.000 0.172 3000.000 -1.505
2 50.00 1200.00 133 1109 228 0.000 0.172 3000.000 -1.505
3 75.00 1200.00 143 1171 214 0.000 0.172 3000.000 -1.505
4 100.00 1200.00 130 1137 204 0.000 0.172 3000.000 -1.505
5 125.00 1200.00 134 1163 181 0.000 0.172 3000.000 -1.505
6 150.00 1200.00 109 1116 205 0.000 0.172 3000.000 -1.505
7 175.00 1200.00 115 1068 228 0.000 0.172 3000.000 -1.505
8 200.00 1200.00 124 1079 215 0.000 0.172 3000.000 -1.505
9 225.00 1200.00 92 1065 261 0.000 0.172 3000.000 -1.505
10 250.00 1200.00 110 1061 263 0.000 0.172 3000.000 -1.505
11 275.00 1200.00 115 1055 255 0.000 0.172 3000.000 -1.505
12 300.00 1200.00 114 1065 253 0.000 0.172 3000.000 -1.505
13 325.00 1200.00 123 1109 252 0.000 0.172 3000.000 -1.505
14 350.00 1200.00 159 1109 191 0.000 0.172 3000.000 -1.505
15 375.00 1200.00 145 1130 215 0.000 0.172 3000.000 -1.505
16 400.00 1200.00 154 1110 203 0.000 0.172 3000.000 -1.505
17 425.00 1200.00 128 1252 240 0.000 0.172 3000.000 -1.505
18 450.00 1200.00 119 1165 192 0.000 0.172 3000.000 -1.505
19 475.00 1200.00 132 1145 204 0.000 0.172 3000.000 -1.505
20 500.00 1200.00 129 1093 245 0.000 0.172 3000.000 -1.505
21 525.00 1200.00 93 1083 265 0.000 0.172 3000.000 -1.505
22 550.00 1200.00 119 1064 253 0.000 0.172 3000.000 -1.505
23 575.00 1200.00 111 1072 262 0.000 0.172 3000.000 -1.505
24 600.00 1200.00 111 1034 279 0.000 0.172 3000.000 -1.505
25 625.00 1200.00 116 1048 258 0.000 0.172 3000.000 -1.505
26 650.00 1200.00 115 1079 248 0.000 0.172 3000.000 -1.505
27 675.00 1200.00 137 988 204 0.000 0.172 3000.000 -1.505
28 700.00 1200.00 143 1078 184 0.000 0.172 3000.000 -1.505
29 725.00 1200.00 131 1121 207 0.000 0.172 3000.000 -1.505
30 750.00 1200.00 132 1179 212 0.000 0.172 3000.000 -1.505
31 775.00 1200.00 139 1136 219 0.000 0.172 3000.000 -1.505
32 800.00 1200.00 133 1122 209 0.000 0.172 3000.000 -1.505
33 825.00 1200.00 113 1116 228 0.000 0.172 3000.000 -1.505
34 850.00 1200.00 119 1083 205 0.000 0.172 3000.000 -1.505
35 875.00 1200.00 100 1107 256 0.000 0.172 3000.000 -1.505
36 900.00 1200.00 99 1020 254 0.000 0.172 3000.000 -1.505
37 925.00 1200.00 111 997 265 0.000 0.172 3000.000 -1.505
38 950.00 1200.00 128 1002 274 0.000 0.172 3000.000 -1.505
39 975.00 1200.00 138 1093 246 0.000 0.172 3000.000 -1.505
