# BinNR microsec tot-time (s)  O-Beam H-beam AUX Ampl(V) f(Hz) phase(deg) chi(pos)
0 0.00 1200.00 64 1226 144 0.000 0.174 3000.000 0.505
1 25.00 1200.00 49 1296 132 0.000 0.174 3000.000 0.505
2 50.00 1200.00 57 1237 139 0.000 0.174 3000.000 0.505
3 75.00 1200.00 64 1225 136 0.000 0.174 3000.000 0.505
4 100.00 1200.00 74 1231 154 0.000 0.174 3000.000 0.505
5 125.00 1200.00 54 1231 149 0.000 0.174 3000.000 0.505
6 150.00 1200.00 80 1219 117 0.000 0.174 3000.000 0.505
7 175.00 1200.00 57 1231 139 0.000 0.174 3000.000 0.505
8 200.00 1200.00 87 1287 124 0.000 0.174 3000.000 0.505
9 225.00 1200.00 83 1241 114 0.000 0.174 3000.000 0.505
10 250.00 1200.00 85 1199 111 0.000 0.174 3000.000 0.505
11 275.00 1200.00 77 1272 114 0.000 0.174 3000.000 0.505
12 300.00 1200.00 58 1264 119 0.000 0.174 3000.000 0.505
13 325.00 1200.00 69 1219 128 0.000 0.174 3000.000 0.505
14 350.00 1200.00 56 1225 151 0.000 0.174 3000.000 0.505
15 375.00 1200.00 57 1229 158 0.000 0.174 3000.000 0.505
16 400.00 1200.00 66 1288 166 0.000 0.174 3000.000 0.505
17 425.00 1200.00 70 1237 171 0.000 0.174 3000.000 0.505
18 450.00 1200.00 58 1208 148 0.000 0.174 3000.000 0.505
19 475.00 1200.00 60 1227 136 0.000 0.174 3000.000 0.505
20 500.00 1200.00 75 1239 136 0.000 0.174 3000.000 0.505
21 525.00 1200.00 94 1233 139 0.000 0.174 3000.000 0.505
22 550.00 1200.00 96 1328 116 0.000 0.174 3000.000 0.505
23 575.00 1200.00 82 1277 107 0.000 0.174 3000.000 0.505
24 600.00 1200.00 75 1279 106 0.000 0.174 3000.000 0.505
25 625.00 1200.00 58 1300 106 0.000 0.174 3000.000 0.505
26 650.00 1200.00 57 1263 117 0.000 0.174 3000.000 0.505
27 675.00 1200.00 49 1242 154 0.000 0.174 3000.000 0.505
28 700.00 1200.00 68 1262 138 0.000 0.174 3000.000 0.505
29 725.00 1200.00 57 1218 144 0.000 0.174 3000.000 0.505
30 750.00 1200.00 68 1188 154 0.000 0.174 3000.000 0.505
31 775.00 1200.00 65 1206 155 0.000 0.174 3000.000 0.505
32 800.00 1200.00 65 1247 133 0.000 0.174 3000.000 0.505
33 825.00 1200.00 60 1223 139 0.000 0.174 3000.000 0.505
34 850.00 1200.00 85 1298 123 0.000 0.174 3000.000 0.505
35 875.00 1200.00 91 1215 120 0.000 0.174 3000.000 0.505
36 900.00 1200.00 74 1244 118 0.000 0.174 3000.000 0.505
37 925.00 1200.00 72 1284 112 0.000 0.174 3000.000 0.505
38 950.00 1200.00 67 1309 110 0.000 0.174 3000.000 0.505
39 975.00 1200.00 75 1236 109 0.000 0.174 3000.000 0.505
