# BinNR microsec tot-time (s)  O-Beam H-beam AUX Ampl1(V) f1(Hz) phase1(deg) Ampl1(V) f1(Hz) phase1(deg) chi(pos)
0 0.00 1200.00 87 224 235 0.843 2000.000 0.000 0.843 3000.000 0.000 1.351
1 16.67 1200.00 61 237 220 0.843 2000.000 0.000 0.843 3000.000 0.000 1.351
2 33.33 1200.00 83 237 232 0.843 2000.000 0.000 0.843 3000.000 0.000 1.351
3 50.00 1200.00 95 227 219 0.843 2000.000 0.000 0.843 3000.000 0.000 1.351
4 66.67 1200.00 84 219 243 0.843 2000.000 0.000 0.843 3000.000 0.000 1.351
5 83.33 1200.00 78 231 226 0.843 2000.000 0.000 0.843 3000.000 0.000 1.351
6 100.00 1200.00 78 263 264 0.843 2000.000 0.000 0.843 3000.000 0.000 1.351
7 116.67 1200.00 88 231 200 0.843 2000.000 0.000 0.843 3000.000 0.000 1.351
8 133.33 1200.00 88 228 236 0.843 2000.000 0.000 0.843 3000.000 0.000 1.351
9 150.00 1200.00 74 230 216 0.843 2000.000 0.000 0.843 3000.000 0.000 1.351
10 166.67 1200.00 90 248 229 0.843 2000.000 0.000 0.843 3000.000 0.000 1.351
11 183.33 1200.00 82 232 259 0.843 2000.000 0.000 0.843 3000.000 0.000 1.351
12 200.00 1200.00 78 258 235 0.843 2000.000 0.000 0.843 3000.000 0.000 1.351
13 216.67 1200.00 63 242 241 0.843 2000.000 0.000 0.843 3000.000 0.000 1.351
14 233.33 1200.00 80 229 217 0.843 2000.000 0.000 0.843 3000.000 0.000 1.351
15 250.00 1200.00 87 258 222 0.843 2000.000 0.000 0.843 3000.000 0.000 1.351
16 266.67 1200.00 79 234 203 0.843 2000.000 0.000 0.843 3000.000 0.000 1.351
17 283.33 1200.00 81 237 232 0.843 2000.000 0.000 0.843 3000.000 0.000 1.351
18 300.00 1200.00 86 230 216 0.843 2000.000 0.000 0.843 3000.000 0.000 1.351
19 316.67 1200.00 94 244 234 0.843 2000.000 0.000 0.843 3000.000 0.000 1.351
20 333.33 1200.00 75 259 211 0.843 2000.000 0.000 0.843 3000.000 0.000 1.351
21 350.00 1200.00 75 227 221 0.843 2000.000 0.000 0.843 3000.000 0.000 1.351
22 366.67 1200.00 89 221 216 0.843 2000.000 0.000 0.843 3000.000 0.000 1.351
23 383.33 1200.00 84 237 215 0.843 2000.000 0.000 0.843 3000.000 0.000 1.351
24 400.00 1200.00 78 230 242 0.843 2000.000 0.000 0.843 3000.000 0.000 1.351
25 416.67 1200.00 77 236 234 0.843 2000.000 0.000 0.843 3000.000 0.000 1.351
26 433.33 1200.00 71 246 219 0.843 2000.000 0.000 0.843 3000.000 0.000 1.351
27 450.00 1200.00 75 205 227 0.843 2000.000 0.000 0.843 3000.000 0.000 1.351
28 466.67 1200.00 91 224 209 0.843 2000.000 0.000 0.843 3000.000 0.000 1.351
29 483.33 1200.00 84 270 226 0.843 2000.000 0.000 0.843 3000.000 0.000 1.351
30 500.00 1200.00 85 249 224 0.843 2000.000 0.000 0.843 3000.000 0.000 1.351
31 516.67 1200.00 82 254 212 0.843 2000.000 0.000 0.843 3000.000 0.000 1.351
32 533.33 1200.00 79 255 206 0.843 2000.000 0.000 0.843 3000.000 0.000 1.351
33 550.00 1200.00 97 253 227 0.843 2000.000 0.000 0.843 3000.000 0.000 1.351
34 566.67 1200.00 78 246 250 0.843 2000.000 0.000 0.843 3000.000 0.000 1.351
35 583.33 1200.00 89 250 231 0.843 2000.000 0.000 0.843 3000.000 0.000 1.351
36 600.00 1200.00 96 235 216 0.843 2000.000 0.000 0.843 3000.000 0.000 1.351
37 616.67 1200.00 84 238 221 0.843 2000.000 0.000 0.843 3000.000 0.000 1.351
38 633.33 1200.00 79 226 210 0.843 2000.000 0.000 0.843 3000.000 0.000 1.351
39 650.00 1200.00 81 201 212 0.843 2000.000 0.000 0.843 3000.000 0.000 1.351
40 666.67 1200.00 77 241 211 0.843 2000.000 0.000 0.843 3000.000 0.000 1.351
41 683.33 1200.00 96 239 177 0.843 2000.000 0.000 0.843 3000.000 0.000 1.351
42 700.00 1200.00 78 241 165 0.843 2000.000 0.000 0.843 3000.000 0.000 1.351
43 716.67 1200.00 87 255 199 0.843 2000.000 0.000 0.843 3000.000 0.000 1.351
44 733.33 1200.00 90 247 201 0.843 2000.000 0.000 0.843 3000.000 0.000 1.351
45 750.00 1200.00 93 230 225 0.843 2000.000 0.000 0.843 3000.000 0.000 1.351
46 766.67 1200.00 80 230 217 0.843 2000.000 0.000 0.843 3000.000 0.000 1.351
47 783.33 1200.00 87 257 221 0.843 2000.000 0.000 0.843 3000.000 0.000 1.351
48 800.00 1200.00 85 205 241 0.843 2000.000 0.000 0.843 3000.000 0.000 1.351
49 816.67 1200.00 100 218 212 0.843 2000.000 0.000 0.843 3000.000 0.000 1.351
50 833.34 1200.00 84 242 222 0.843 2000.000 0.000 0.843 3000.000 0.000 1.351
51 850.00 1200.00 85 255 240 0.843 2000.000 0.000 0.843 3000.000 0.000 1.351
52 866.67 1200.00 81 254 195 0.843 2000.000 0.000 0.843 3000.000 0.000 1.351
53 883.34 1200.00 86 246 240 0.843 2000.000 0.000 0.843 3000.000 0.000 1.351
54 900.00 1200.00 89 284 216 0.843 2000.000 0.000 0.843 3000.000 0.000 1.351
55 916.67 1200.00 97 277 205 0.843 2000.000 0.000 0.843 3000.000 0.000 1.351
56 933.34 1200.00 84 294 215 0.843 2000.000 0.000 0.843 3000.000 0.000 1.351
57 950.00 1200.00 94 278 236 0.843 2000.000 0.000 0.843 3000.000 0.000 1.351
58 966.67 1200.00 80 242 198 0.843 2000.000 0.000 0.843 3000.000 0.000 1.351
59 983.34 1200.00 92 217 231 0.843 2000.000 0.000 0.843 3000.000 0.000 1.351
60 1000.00 1200.00 80 249 241 0.843 2000.000 0.000 0.843 3000.000 0.000 1.351
61 1016.67 1200.00 74 252 229 0.843 2000.000 0.000 0.843 3000.000 0.000 1.351
62 1033.34 1200.00 101 253 244 0.843 2000.000 0.000 0.843 3000.000 0.000 1.351
63 1050.00 1200.00 90 227 222 0.843 2000.000 0.000 0.843 3000.000 0.000 1.351
64 1066.67 1200.00 94 252 223 0.843 2000.000 0.000 0.843 3000.000 0.000 1.351
65 1083.34 1200.00 80 229 227 0.843 2000.000 0.000 0.843 3000.000 0.000 1.351
66 1100.00 1200.00 81 247 218 0.843 2000.000 0.000 0.843 3000.000 0.000 1.351
67 1116.67 1200.00 89 254 242 0.843 2000.000 0.000 0.843 3000.000 0.000 1.351
68 1133.34 1200.00 77 258 224 0.843 2000.000 0.000 0.843 3000.000 0.000 1.351
69 1150.00 1200.00 83 222 241 0.843 2000.000 0.000 0.843 3000.000 0.000 1.351
70 1166.67 1200.00 79 234 235 0.843 2000.000 0.000 0.843 3000.000 0.000 1.351
71 1183.34 1200.00 72 217 235 0.843 2000.000 0.000 0.843 3000.000 0.000 1.351
72 1200.00 1200.00 89 217 269 0.843 2000.000 0.000 0.843 3000.000 0.000 1.351
73 1216.67 1200.00 101 199 225 0.843 2000.000 0.000 0.843 3000.000 0.000 1.351
74 1233.34 1200.00 68 211 233 0.843 2000.000 0.000 0.843 3000.000 0.000 1.351
75 1250.00 1200.00 90 245 210 0.843 2000.000 0.000 0.843 3000.000 0.000 1.351
76 1266.67 1200.00 81 251 201 0.843 2000.000 0.000 0.843 3000.000 0.000 1.351
77 1283.34 1200.00 74 206 212 0.843 2000.000 0.000 0.843 3000.000 0.000 1.351
78 1300.00 1200.00 87 244 202 0.843 2000.000 0.000 0.843 3000.000 0.000 1.351
79 1316.67 1200.00 96 252 209 0.843 2000.000 0.000 0.843 3000.000 0.000 1.351
80 1333.34 1200.00 83 242 225 0.843 2000.000 0.000 0.843 3000.000 0.000 1.351
81 1350.00 1200.00 72 250 243 0.843 2000.000 0.000 0.843 3000.000 0.000 1.351
82 1366.67 1200.00 75 224 231 0.843 2000.000 0.000 0.843 3000.000 0.000 1.351
83 1383.34 1200.00 74 225 194 0.843 2000.000 0.000 0.843 3000.000 0.000 1.351
84 1400.00 1200.00 74 248 232 0.843 2000.000 0.000 0.843 3000.000 0.000 1.351
85 1416.67 1200.00 72 254 225 0.843 2000.000 0.000 0.843 3000.000 0.000 1.351
86 1433.34 1200.00 84 254 214 0.843 2000.000 0.000 0.843 3000.000 0.000 1.351
87 1450.00 1200.00 76 234 222 0.843 2000.000 0.000 0.843 3000.000 0.000 1.351
88 1466.67 1200.00 73 219 252 0.843 2000.000 0.000 0.843 3000.000 0.000 1.351
89 1483.34 1200.00 77 231 250 0.843 2000.000 0.000 0.843 3000.000 0.000 1.351
90 1500.00 1200.00 72 239 214 0.843 2000.000 0.000 0.843 3000.000 0.000 1.351
91 1516.67 1200.00 97 280 221 0.843 2000.000 0.000 0.843 3000.000 0.000 1.351
92 1533.34 1200.00 75 231 240 0.843 2000.000 0.000 0.843 3000.000 0.000 1.351
93 1550.00 1200.00 85 249 223 0.843 2000.000 0.000 0.843 3000.000 0.000 1.351
94 1566.67 1200.00 69 232 237 0.843 2000.000 0.000 0.843 3000.000 0.000 1.351
95 1583.34 1200.00 81 257 234 0.843 2000.000 0.000 0.843 3000.000 0.000 1.351
96 1600.00 1200.00 83 234 203 0.843 2000.000 0.000 0.843 3000.000 0.000 1.351
97 1616.67 1200.00 71 243 247 0.843 2000.000 0.000 0.843 3000.000 0.000 1.351
98 1633.34 1200.00 83 221 224 0.843 2000.000 0.000 0.843 3000.000 0.000 1.351
99 1650.00 1200.00 80 241 220 0.843 2000.000 0.000 0.843 3000.000 0.000 1.351
100 1666.67 1200.00 74 227 194 0.843 2000.000 0.000 0.843 3000.000 0.000 1.351
101 1683.34 1200.00 83 246 159 0.843 2000.000 0.000 0.843 3000.000 0.000 1.351
102 1700.00 1200.00 77 269 192 0.843 2000.000 0.000 0.843 3000.000 0.000 1.351
103 1716.67 1200.00 78 248 189 0.843 2000.000 0.000 0.843 3000.000 0.000 1.351
104 1733.34 1200.00 88 223 216 0.843 2000.000 0.000 0.843 3000.000 0.000 1.351
105 1750.00 1200.00 89 261 232 0.843 2000.000 0.000 0.843 3000.000 0.000 1.351
106 1766.67 1200.00 71 227 212 0.843 2000.000 0.000 0.843 3000.000 0.000 1.351
107 1783.34 1200.00 83 265 220 0.843 2000.000 0.000 0.843 3000.000 0.000 1.351
108 1800.00 1200.00 76 228 220 0.843 2000.000 0.000 0.843 3000.000 0.000 1.351
109 1816.67 1200.00 79 238 236 0.843 2000.000 0.000 0.843 3000.000 0.000 1.351
110 1833.34 1200.00 76 228 230 0.843 2000.000 0.000 0.843 3000.000 0.000 1.351
111 1850.00 1200.00 81 255 213 0.843 2000.000 0.000 0.843 3000.000 0.000 1.351
112 1866.67 1200.00 89 272 237 0.843 2000.000 0.000 0.843 3000.000 0.000 1.351
113 1883.34 1200.00 95 249 220 0.843 2000.000 0.000 0.843 3000.000 0.000 1.351
114 1900.00 1200.00 76 285 224 0.843 2000.000 0.000 0.843 3000.000 0.000 1.351
115 1916.67 1200.00 91 281 221 0.843 2000.000 0.000 0.843 3000.000 0.000 1.351
116 1933.34 1200.00 91 291 220 0.843 2000.000 0.000 0.843 3000.000 0.000 1.351
117 1950.00 1200.00 82 267 245 0.843 2000.000 0.000 0.843 3000.000 0.000 1.351
118 1966.67 1200.00 66 228 248 0.843 2000.000 0.000 0.843 3000.000 0.000 1.351
119 1983.34 1200.00 78 219 200 0.843 2000.000 0.000 0.843 3000.000 0.000 1.351
