# BinNR microsec tot-time (s)  O-Beam H-beam AUX Ampl1(V) f1(Hz) phase1(deg) Ampl1(V) f1(Hz) phase1(deg) chi(pos)
0 0.00 1200.00 76 239 207 0.843 2000.000 0.000 0.843 3000.000 0.000 1.505
1 16.67 1200.00 107 238 237 0.843 2000.000 0.000 0.843 3000.000 0.000 1.505
2 33.33 1200.00 88 248 214 0.843 2000.000 0.000 0.843 3000.000 0.000 1.505
3 50.00 1200.00 83 279 219 0.843 2000.000 0.000 0.843 3000.000 0.000 1.505
4 66.67 1200.00 80 328 232 0.843 2000.000 0.000 0.843 3000.000 0.000 1.505
5 83.33 1200.00 90 277 249 0.843 2000.000 0.000 0.843 3000.000 0.000 1.505
6 100.00 1200.00 72 302 241 0.843 2000.000 0.000 0.843 3000.000 0.000 1.505
7 116.67 1200.00 82 267 230 0.843 2000.000 0.000 0.843 3000.000 0.000 1.505
8 133.33 1200.00 81 268 202 0.843 2000.000 0.000 0.843 3000.000 0.000 1.505
9 150.00 1200.00 57 253 214 0.843 2000.000 0.000 0.843 3000.000 0.000 1.505
10 166.67 1200.00 64 232 232 0.843 2000.000 0.000 0.843 3000.000 0.000 1.505
11 183.33 1200.00 78 263 214 0.843 2000.000 0.000 0.843 3000.000 0.000 1.505
12 200.00 1200.00 60 239 216 0.843 2000.000 0.000 0.843 3000.000 0.000 1.505
13 216.67 1200.00 64 210 233 0.843 2000.000 0.000 0.843 3000.000 0.000 1.505
14 233.33 1200.00 82 205 227 0.843 2000.000 0.000 0.843 3000.000 0.000 1.505
15 250.00 1200.00 73 210 242 0.843 2000.000 0.000 0.843 3000.000 0.000 1.505
16 266.67 1200.00 81 206 217 0.843 2000.000 0.000 0.843 3000.000 0.000 1.505
17 283.33 1200.00 98 241 222 0.843 2000.000 0.000 0.843 3000.000 0.000 1.505
18 300.00 1200.00 77 196 206 0.843 2000.000 0.000 0.843 3000.000 0.000 1.505
19 316.67 1200.00 92 245 225 0.843 2000.000 0.000 0.843 3000.000 0.000 1.505
20 333.33 1200.00 108 241 237 0.843 2000.000 0.000 0.843 3000.000 0.000 1.505
21 350.00 1200.00 74 235 224 0.843 2000.000 0.000 0.843 3000.000 0.000 1.505
22 366.67 1200.00 73 269 253 0.843 2000.000 0.000 0.843 3000.000 0.000 1.505
23 383.33 1200.00 74 238 210 0.843 2000.000 0.000 0.843 3000.000 0.000 1.505
24 400.00 1200.00 82 269 224 0.843 2000.000 0.000 0.843 3000.000 0.000 1.505
25 416.67 1200.00 75 253 228 0.843 2000.000 0.000 0.843 3000.000 0.000 1.505
26 433.33 1200.00 63 248 184 0.843 2000.000 0.000 0.843 3000.000 0.000 1.505
27 450.00 1200.00 73 260 219 0.843 2000.000 0.000 0.843 3000.000 0.000 1.505
28 466.67 1200.00 84 207 205 0.843 2000.000 0.000 0.843 3000.000 0.000 1.505
29 483.33 1200.00 84 235 175 0.843 2000.000 0.000 0.843 3000.000 0.000 1.505
30 500.00 1200.00 91 236 193 0.843 2000.000 0.000 0.843 3000.000 0.000 1.505
31 516.67 1200.00 71 253 189 0.843 2000.000 0.000 0.843 3000.000 0.000 1.505
32 533.33 1200.00 86 244 209 0.843 2000.000 0.000 0.843 3000.000 0.000 1.505
33 550.00 1200.00 81 223 187 0.843 2000.000 0.000 0.843 3000.000 0.000 1.505
34 566.67 1200.00 73 220 211 0.843 2000.000 0.000 0.843 3000.000 0.000 1.505
35 583.33 1200.00 84 253 207 0.843 2000.000 0.000 0.843 3000.000 0.000 1.505
36 600.00 1200.00 69 223 223 0.843 2000.000 0.000 0.843 3000.000 0.000 1.505
37 616.67 1200.00 75 235 213 0.843 2000.000 0.000 0.843 3000.000 0.000 1.505
38 633.33 1200.00 79 260 233 0.843 2000.000 0.000 0.843 3000.000 0.000 1.505
39 650.00 1200.00 74 270 208 0.843 2000.000 0.000 0.843 3000.000 0.000 1.505
40 666.67 1200.00 83 265 219 0.843 2000.000 0.000 0.843 3000.000 0.000 1.505
41 683.33 1200.00 79 291 230 0.843 2000.000 0.000 0.843 3000.000 0.000 1.505
42 700.00 1200.00 82 265 213 0.843 2000.000 0.000 0.843 3000.000 0.000 1.505
43 716.67 1200.00 98 319 222 0.843 2000.000 0.000 0.843 3000.000 0.000 1.505
44 733.33 1200.00 75 300 213 0.843 2000.000 0.000 0.843 3000.000 0.000 1.505
45 750.00 1200.00 96 263 223 0.843 2000.000 0.000 0.843 3000.000 0.000 1.505
46 766.67 1200.00 75 285 206 0.843 2000.000 0.000 0.843 3000.000 0.000 1.505
47 783.33 1200.00 92 266 237 0.843 2000.000 0.000 0.843 3000.000 0.000 1.505
48 800.00 1200.00 98 242 216 0.843 2000.000 0.000 0.843 3000.000 0.000 1.505
49 816.67 1200.00 71 244 230 0.843 2000.000 0.000 0.843 3000.000 0.000 1.505
50 833.34 1200.00 79 238 218 0.843 2000.000 0.000 0.843 3000.000 0.000 1.505
51 850.00 1200.00 86 228 201 0.843 2000.000 0.000 0.843 3000.000 0.000 1.505
52 866.67 1200.00 81 239 192 0.843 2000.000 0.000 0.843 3000.000 0.000 1.505
53 883.34 1200.00 93 232 218 0.843 2000.000 0.000 0.843 3000.000 0.000 1.505
54 900.00 1200.00 65 225 223 0.843 2000.000 0.000 0.843 3000.000 0.000 1.505
55 916.67 1200.00 91 257 188 0.843 2000.000 0.000 0.843 3000.000 0.000 1.505
56 933.34 1200.00 83 230 209 0.843 2000.000 0.000 0.843 3000.000 0.000 1.505
57 950.00 1200.00 67 227 222 0.843 2000.000 0.000 0.843 3000.000 0.000 1.505
58 966.67 1200.00 87 218 211 0.843 2000.000 0.000 0.843 3000.000 0.000 1.505
59 983.34 1200.00 88 232 219 0.843 2000.000 0.000 0.843 3000.000 0.000 1.505
60 1000.00 1200.00 97 243 244 0.843 2000.000 0.000 0.843 3000.000 0.000 1.505
61 1016.67 1200.00 95 251 240 0.843 2000.000 0.000 0.843 3000.000 0.000 1.505
62 1033.34 1200.00 65 277 229 0.843 2000.000 0.000 0.843 3000.000 0.000 1.505
63 1050.00 1200.00 78 247 247 0.843 2000.000 0.000 0.843 3000.000 0.000 1.505
64 1066.67 1200.00 80 274 234 0.843 2000.000 0.000 0.843 3000.000 0.000 1.505
65 1083.34 1200.00 81 307 223 0.843 2000.000 0.000 0.843 3000.000 0.000 1.505
66 1100.00 1200.00 83 265 232 0.843 2000.000 0.000 0.843 3000.000 0.000 1.505
67 1116.67 1200.00 84 270 223 0.843 2000.000 0.000 0.843 3000.000 0.000 1.505
68 1133.34 1200.00 74 259 186 0.843 2000.000 0.000 0.843 3000.000 0.000 1.505
69 1150.00 1200.00 57 261 226 0.843 2000.000 0.000 0.843 3000.000 0.000 1.505
70 1166.67 1200.00 71 277 218 0.843 2000.000 0.000 0.843 3000.000 0.000 1.505
71 1183.34 1200.00 65 242 231 0.843 2000.000 0.000 0.843 3000.000 0.000 1.505
72 1200.00 1200.00 75 243 250 0.843 2000.000 0.000 0.843 3000.000 0.000 1.505
73 1216.67 1200.00 65 236 236 0.843 2000.000 0.000 0.843 3000.000 0.000 1.505
74 1233.34 1200.00 69 207 215 0.843 2000.000 0.000 0.843 3000.000 0.000 1.505
75 1250.00 1200.00 75 243 259 0.843 2000.000 0.000 0.843 3000.000 0.000 1.505
76 1266.67 1200.00 82 228 248 0.843 2000.000 0.000 0.843 3000.000 0.000 1.505
77 1283.34 1200.00 83 228 219 0.843 2000.000 0.000 0.843 3000.000 0.000 1.505
78 1300.00 1200.00 83 221 242 0.843 2000.000 0.000 0.843 3000.000 0.000 1.505
79 1316.67 1200.00 89 234 243 0.843 2000.000 0.000 0.843 3000.000 0.000 1.505
80 1333.34 1200.00 78 207 239 0.843 2000.000 0.000 0.843 3000.000 0.000 1.505
81 1350.00 1200.00 104 214 253 0.843 2000.000 0.000 0.843 3000.000 0.000 1.505
82 1366.67 1200.00 81 255 237 0.843 2000.000 0.000 0.843 3000.000 0.000 1.505
83 1383.34 1200.00 77 259 233 0.843 2000.000 0.000 0.843 3000.000 0.000 1.505
84 1400.00 1200.00 94 256 235 0.843 2000.000 0.000 0.843 3000.000 0.000 1.505
85 1416.67 1200.00 85 246 224 0.843 2000.000 0.000 0.843 3000.000 0.000 1.505
86 1433.34 1200.00 91 202 171 0.843 2000.000 0.000 0.843 3000.000 0.000 1.505
87 1450.00 1200.00 89 258 205 0.843 2000.000 0.000 0.843 3000.000 0.000 1.505
88 1466.67 1200.00 81 238 185 0.843 2000.000 0.000 0.843 3000.000 0.000 1.505
89 1483.34 1200.00 78 242 213 0.843 2000.000 0.000 0.843 3000.000 0.000 1.505
90 1500.00 1200.00 77 233 202 0.843 2000.000 0.000 0.843 3000.000 0.000 1.505
91 1516.67 1200.00 114 248 230 0.843 2000.000 0.000 0.843 3000.000 0.000 1.505
92 1533.34 1200.00 91 234 184 0.843 2000.000 0.000 0.843 3000.000 0.000 1.505
93 1550.00 1200.00 84 213 184 0.843 2000.000 0.000 0.843 3000.000 0.000 1.505
94 1566.67 1200.00 73 229 221 0.843 2000.000 0.000 0.843 3000.000 0.000 1.505
95 1583.34 1200.00 67 233 204 0.843 2000.000 0.000 0.843 3000.000 0.000 1.505
96 1600.00 1200.00 77 237 235 0.843 2000.000 0.000 0.843 3000.000 0.000 1.505
97 1616.67 1200.00 88 247 218 0.843 2000.000 0.000 0.843 3000.000 0.000 1.505
98 1633.34 1200.00 79 253 214 0.843 2000.000 0.000 0.843 3000.000 0.000 1.505
99 1650.00 1200.00 80 223 232 0.843 2000.000 0.000 0.843 3000.000 0.000 1.505
100 1666.67 1200.00 80 290 209 0.843 2000.000 0.000 0.843 3000.000 0.000 1.505
101 1683.34 1200.00 73 313 214 0.843 2000.000 0.000 0.843 3000.000 0.000 1.505
102 1700.00 1200.00 100 326 217 0.843 2000.000 0.000 0.843 3000.000 0.000 1.505
103 1716.67 1200.00 83 298 229 0.843 2000.000 0.000 0.843 3000.000 0.000 1.505
104 1733.34 1200.00 88 285 230 0.843 2000.000 0.000 0.843 3000.000 0.000 1.505
105 1750.00 1200.00 81 300 228 0.843 2000.000 0.000 0.843 3000.000 0.000 1.505
106 1766.67 1200.00 70 280 251 0.843 2000.000 0.000 0.843 3000.000 0.000 1.505
107 1783.34 1200.00 98 276 238 0.843 2000.000 0.000 0.843 3000.000 0.000 1.505
108 1800.00 1200.00 81 210 223 0.843 2000.000 0.000 0.843 3000.000 0.000 1.505
109 1816.67 1200.00 87 222 196 0.843 2000.000 0.000 0.843 3000.000 0.000 1.505
110 1833.34 1200.00 88 230 200 0.843 2000.000 0.000 0.843 3000.000 0.000 1.505
111 1850.00 1200.00 82 218 192 0.843 2000.000 0.000 0.843 3000.000 0.000 1.505
112 1866.67 1200.00 94 230 174 0.843 2000.000 0.000 0.843 3000.000 0.000 1.505
113 1883.34 1200.00 94 245 202 0.843 2000.000 0.000 0.843 3000.000 0.000 1.505
114 1900.00 1200.00 89 257 213 0.843 2000.000 0.000 0.843 3000.000 0.000 1.505
115 1916.67 1200.00 84 229 199 0.843 2000.000 0.000 0.843 3000.000 0.000 1.505
116 1933.34 1200.00 70 238 228 0.843 2000.000 0.000 0.843 3000.000 0.000 1.505
117 1950.00 1200.00 89 252 205 0.843 2000.000 0.000 0.843 3000.000 0.000 1.505
118 1966.67 1200.00 86 213 218 0.843 2000.000 0.000 0.843 3000.000 0.000 1.505
119 1983.34 1200.00 70 218 208 0.843 2000.000 0.000 0.843 3000.000 0.000 1.505
