# BinNR microsec tot-time (s)  O-Beam H-beam AUX Ampl1(V) f1(Hz) phase1(deg) Ampl1(V) f1(Hz) phase1(deg) chi(pos)
0 0.00 1200.00 71 256 224 0.843 2000.000 0.000 0.843 3000.000 0.000 1.208
1 16.67 1200.00 65 245 200 0.843 2000.000 0.000 0.843 3000.000 0.000 1.208
2 33.33 1200.00 94 224 192 0.843 2000.000 0.000 0.843 3000.000 0.000 1.208
3 50.00 1200.00 66 242 193 0.843 2000.000 0.000 0.843 3000.000 0.000 1.208
4 66.67 1200.00 91 235 172 0.843 2000.000 0.000 0.843 3000.000 0.000 1.208
5 83.33 1200.00 83 240 192 0.843 2000.000 0.000 0.843 3000.000 0.000 1.208
6 100.00 1200.00 88 241 218 0.843 2000.000 0.000 0.843 3000.000 0.000 1.208
7 116.67 1200.00 71 256 214 0.843 2000.000 0.000 0.843 3000.000 0.000 1.208
8 133.33 1200.00 93 234 209 0.843 2000.000 0.000 0.843 3000.000 0.000 1.208
9 150.00 1200.00 87 229 224 0.843 2000.000 0.000 0.843 3000.000 0.000 1.208
10 166.67 1200.00 87 229 201 0.843 2000.000 0.000 0.843 3000.000 0.000 1.208
11 183.33 1200.00 95 216 217 0.843 2000.000 0.000 0.843 3000.000 0.000 1.208
12 200.00 1200.00 89 262 213 0.843 2000.000 0.000 0.843 3000.000 0.000 1.208
13 216.67 1200.00 79 229 215 0.843 2000.000 0.000 0.843 3000.000 0.000 1.208
14 233.33 1200.00 76 265 196 0.843 2000.000 0.000 0.843 3000.000 0.000 1.208
15 250.00 1200.00 77 274 200 0.843 2000.000 0.000 0.843 3000.000 0.000 1.208
16 266.67 1200.00 90 286 170 0.843 2000.000 0.000 0.843 3000.000 0.000 1.208
17 283.33 1200.00 82 309 209 0.843 2000.000 0.000 0.843 3000.000 0.000 1.208
18 300.00 1200.00 81 272 201 0.843 2000.000 0.000 0.843 3000.000 0.000 1.208
19 316.67 1200.00 78 276 182 0.843 2000.000 0.000 0.843 3000.000 0.000 1.208
20 333.33 1200.00 67 252 174 0.843 2000.000 0.000 0.843 3000.000 0.000 1.208
21 350.00 1200.00 74 231 211 0.843 2000.000 0.000 0.843 3000.000 0.000 1.208
22 366.67 1200.00 69 256 206 0.843 2000.000 0.000 0.843 3000.000 0.000 1.208
23 383.33 1200.00 42 253 195 0.843 2000.000 0.000 0.843 3000.000 0.000 1.208
24 400.00 1200.00 66 231 232 0.843 2000.000 0.000 0.843 3000.000 0.000 1.208
25 416.67 1200.00 58 252 224 0.843 2000.000 0.000 0.843 3000.000 0.000 1.208
26 433.33 1200.00 68 247 207 0.843 2000.000 0.000 0.843 3000.000 0.000 1.208
27 450.00 1200.00 64 267 243 0.843 2000.000 0.000 0.843 3000.000 0.000 1.208
28 466.67 1200.00 81 297 259 0.843 2000.000 0.000 0.843 3000.000 0.000 1.208
29 483.33 1200.00 85 251 243 0.843 2000.000 0.000 0.843 3000.000 0.000 1.208
30 500.00 1200.00 92 297 225 0.843 2000.000 0.000 0.843 3000.000 0.000 1.208
31 516.67 1200.00 82 279 243 0.843 2000.000 0.000 0.843 3000.000 0.000 1.208
32 533.33 1200.00 74 301 240 0.843 2000.000 0.000 0.843 3000.000 0.000 1.208
33 550.00 1200.00 105 310 219 0.843 2000.000 0.000 0.843 3000.000 0.000 1.208
34 566.67 1200.00 65 278 220 0.843 2000.000 0.000 0.843 3000.000 0.000 1.208
35 583.33 1200.00 88 272 204 0.843 2000.000 0.000 0.843 3000.000 0.000 1.208
36 600.00 1200.00 98 246 211 0.843 2000.000 0.000 0.843 3000.000 0.000 1.208
37 616.67 1200.00 88 254 185 0.843 2000.000 0.000 0.843 3000.000 0.000 1.208
38 633.33 1200.00 79 254 169 0.843 2000.000 0.000 0.843 3000.000 0.000 1.208
39 650.00 1200.00 73 258 162 0.843 2000.000 0.000 0.843 3000.000 0.000 1.208
40 666.67 1200.00 72 221 185 0.843 2000.000 0.000 0.843 3000.000 0.000 1.208
41 683.33 1200.00 92 228 181 0.843 2000.000 0.000 0.843 3000.000 0.000 1.208
42 700.00 1200.00 93 249 171 0.843 2000.000 0.000 0.843 3000.000 0.000 1.208
43 716.67 1200.00 77 230 157 0.843 2000.000 0.000 0.843 3000.000 0.000 1.208
44 733.33 1200.00 85 258 189 0.843 2000.000 0.000 0.843 3000.000 0.000 1.208
45 750.00 1200.00 74 222 184 0.843 2000.000 0.000 0.843 3000.000 0.000 1.208
46 766.67 1200.00 74 233 211 0.843 2000.000 0.000 0.843 3000.000 0.000 1.208
47 783.33 1200.00 71 222 214 0.843 2000.000 0.000 0.843 3000.000 0.000 1.208
48 800.00 1200.00 66 243 205 0.843 2000.000 0.000 0.843 3000.000 0.000 1.208
49 816.67 1200.00 81 241 222 0.843 2000.000 0.000 0.843 3000.000 0.000 1.208
50 833.34 1200.00 68 294 234 0.843 2000.000 0.000 0.843 3000.000 0.000 1.208
51 850.00 1200.00 99 297 234 0.843 2000.000 0.000 0.843 3000.000 0.000 1.208
52 866.67 1200.00 80 333 236 0.843 2000.000 0.000 0.843 3000.000 0.000 1.208
53 883.34 1200.00 74 316 238 0.843 2000.000 0.000 0.843 3000.000 0.000 1.208
54 900.00 1200.00 75 361 245 0.843 2000.000 0.000 0.843 3000.000 0.000 1.208
55 916.67 1200.00 85 357 236 0.843 2000.000 0.000 0.843 3000.000 0.000 1.208
56 933.34 1200.00 88 323 231 0.843 2000.000 0.000 0.843 3000.000 0.000 1.208
57 950.00 1200.00 78 322 218 0.843 2000.000 0.000 0.843 3000.000 0.000 1.208
58 966.67 1200.00 70 272 201 0.843 2000.000 0.000 0.843 3000.000 0.000 1.208
59 983.34 1200.00 74 308 204 0.843 2000.000 0.000 0.843 3000.000 0.000 1.208
60 1000.00 1200.00 75 260 222 0.843 2000.000 0.000 0.843 3000.000 0.000 1.208
61 1016.67 1200.00 73 277 190 0.843 2000.000 0.000 0.843 3000.000 0.000 1.208
62 1033.34 1200.00 82 237 203 0.843 2000.000 0.000 0.843 3000.000 0.000 1.208
63 1050.00 1200.00 94 237 206 0.843 2000.000 0.000 0.843 3000.000 0.000 1.208
64 1066.67 1200.00 76 229 198 0.843 2000.000 0.000 0.843 3000.000 0.000 1.208
65 1083.34 1200.00 88 224 227 0.843 2000.000 0.000 0.843 3000.000 0.000 1.208
66 1100.00 1200.00 90 259 219 0.843 2000.000 0.000 0.843 3000.000 0.000 1.208
67 1116.67 1200.00 75 239 199 0.843 2000.000 0.000 0.843 3000.000 0.000 1.208
68 1133.34 1200.00 65 223 211 0.843 2000.000 0.000 0.843 3000.000 0.000 1.208
69 1150.00 1200.00 72 243 197 0.843 2000.000 0.000 0.843 3000.000 0.000 1.208
70 1166.67 1200.00 83 232 233 0.843 2000.000 0.000 0.843 3000.000 0.000 1.208
71 1183.34 1200.00 80 215 229 0.843 2000.000 0.000 0.843 3000.000 0.000 1.208
72 1200.00 1200.00 70 265 244 0.843 2000.000 0.000 0.843 3000.000 0.000 1.208
73 1216.67 1200.00 88 291 203 0.843 2000.000 0.000 0.843 3000.000 0.000 1.208
74 1233.34 1200.00 98 250 206 0.843 2000.000 0.000 0.843 3000.000 0.000 1.208
75 1250.00 1200.00 82 289 199 0.843 2000.000 0.000 0.843 3000.000 0.000 1.208
76 1266.67 1200.00 85 263 202 0.843 2000.000 0.000 0.843 3000.000 0.000 1.208
77 1283.34 1200.00 87 270 188 0.843 2000.000 0.000 0.843 3000.000 0.000 1.208
78 1300.00 1200.00 82 306 180 0.843 2000.000 0.000 0.843 3000.000 0.000 1.208
79 1316.67 1200.00 78 281 203 0.843 2000.000 0.000 0.843 3000.000 0.000 1.208
80 1333.34 1200.00 71 289 208 0.843 2000.000 0.000 0.843 3000.000 0.000 1.208
81 1350.00 1200.00 86 247 219 0.843 2000.000 0.000 0.843 3000.000 0.000 1.208
82 1366.67 1200.00 61 241 202 0.843 2000.000 0.000 0.843 3000.000 0.000 1.208
83 1383.34 1200.00 62 257 191 0.843 2000.000 0.000 0.843 3000.000 0.000 1.208
84 1400.00 1200.00 62 251 208 0.843 2000.000 0.000 0.843 3000.000 0.000 1.208
85 1416.67 1200.00 58 240 224 0.843 2000.000 0.000 0.843 3000.000 0.000 1.208
86 1433.34 1200.00 68 266 224 0.843 2000.000 0.000 0.843 3000.000 0.000 1.208
87 1450.00 1200.00 69 291 241 0.843 2000.000 0.000 0.843 3000.000 0.000 1.208
88 1466.67 1200.00 74 278 237 0.843 2000.000 0.000 0.843 3000.000 0.000 1.208
89 1483.34 1200.00 74 288 213 0.843 2000.000 0.000 0.843 3000.000 0.000 1.208
90 1500.00 1200.00 92 266 247 0.843 2000.000 0.000 0.843 3000.000 0.000 1.208
91 1516.67 1200.00 81 285 222 0.843 2000.000 0.000 0.843 3000.000 0.000 1.208
92 1533.34 1200.00 70 284 232 0.843 2000.000 0.000 0.843 3000.000 0.000 1.208
93 1550.00 1200.00 91 298 242 0.843 2000.000 0.000 0.843 3000.000 0.000 1.208
94 1566.67 1200.00 102 270 240 0.843 2000.000 0.000 0.843 3000.000 0.000 1.208
95 1583.34 1200.00 85 262 215 0.843 2000.000 0.000 0.843 3000.000 0.000 1.208
96 1600.00 1200.00 84 265 191 0.843 2000.000 0.000 0.843 3000.000 0.000 1.208
97 1616.67 1200.00 75 256 212 0.843 2000.000 0.000 0.843 3000.000 0.000 1.208
98 1633.34 1200.00 90 262 174 0.843 2000.000 0.000 0.843 3000.000 0.000 1.208
99 1650.00 1200.00 87 265 185 0.843 2000.000 0.000 0.843 3000.000 0.000 1.208
100 1666.67 1200.00 94 216 170 0.843 2000.000 0.000 0.843 3000.000 0.000 1.208
101 1683.34 1200.00 77 232 184 0.843 2000.000 0.000 0.843 3000.000 0.000 1.208
102 1700.00 1200.00 68 200 173 0.843 2000.000 0.000 0.843 3000.000 0.000 1.208
103 1716.67 1200.00 78 238 162 0.843 2000.000 0.000 0.843 3000.000 0.000 1.208
104 1733.34 1200.00 73 197 174 0.843 2000.000 0.000 0.843 3000.000 0.000 1.208
105 1750.00 1200.00 75 236 190 0.843 2000.000 0.000 0.843 3000.000 0.000 1.208
106 1766.67 1200.00 82 259 192 0.843 2000.000 0.000 0.843 3000.000 0.000 1.208
107 1783.34 1200.00 106 243 200 0.843 2000.000 0.000 0.843 3000.000 0.000 1.208
108 1800.00 1200.00 86 259 203 0.843 2000.000 0.000 0.843 3000.000 0.000 1.208
109 1816.67 1200.00 82 278 245 0.843 2000.000 0.000 0.843 3000.000 0.000 1.208
110 1833.34 1200.00 67 323 225 0.843 2000.000 0.000 0.843 3000.000 0.000 1.208
111 1850.00 1200.00 82 311 208 0.843 2000.000 0.000 0.843 3000.000 0.000 1.208
112 1866.67 1200.00 80 313 217 0.843 2000.000 0.000 0.843 3000.000 0.000 1.208
113 1883.34 1200.00 80 364 205 0.843 2000.000 0.000 0.843 3000.000 0.000 1.208
114 1900.00 1200.00 91 348 259 0.843 2000.000 0.000 0.843 3000.000 0.000 1.208
115 1916.67 1200.00 68 343 243 0.843 2000.000 0.000 0.843 3000.000 0.000 1.208
116 1933.34 1200.00 80 351 192 0.843 2000.000 0.000 0.843 3000.000 0.000 1.208
117 1950.00 1200.00 93 314 237 0.843 2000.000 0.000 0.843 3000.000 0.000 1.208
118 1966.67 1200.00 77 292 210 0.843 2000.000 0.000 0.843 3000.000 0.000 1.208
119 1983.34 1200.00 90 272 194 0.843 2000.000 0.000 0.843 3000.000 0.000 1.208
