# BinNR microsec tot-time (s)  O-Beam H-beam AUX Ampl1(V) f1(Hz) phase1(deg) Ampl1(V) f1(Hz) phase1(deg) chi(pos)
0 0.00 1200.00 25 547 33 0.843 2000.000 0.000 0.843 3000.000 0.000 0.352
1 16.67 1200.00 19 553 41 0.843 2000.000 0.000 0.843 3000.000 0.000 0.352
2 33.33 1200.00 27 484 48 0.843 2000.000 0.000 0.843 3000.000 0.000 0.352
3 50.00 1200.00 21 555 36 0.843 2000.000 0.000 0.843 3000.000 0.000 0.352
4 66.67 1200.00 18 488 26 0.843 2000.000 0.000 0.843 3000.000 0.000 0.352
5 83.33 1200.00 16 487 42 0.843 2000.000 0.000 0.843 3000.000 0.000 0.352
6 100.00 1200.00 19 509 28 0.843 2000.000 0.000 0.843 3000.000 0.000 0.352
7 116.67 1200.00 14 517 37 0.843 2000.000 0.000 0.843 3000.000 0.000 0.352
8 133.33 1200.00 19 547 32 0.843 2000.000 0.000 0.843 3000.000 0.000 0.352
9 150.00 1200.00 18 505 48 0.843 2000.000 0.000 0.843 3000.000 0.000 0.352
10 166.67 1200.00 17 505 46 0.843 2000.000 0.000 0.843 3000.000 0.000 0.352
11 183.33 1200.00 34 509 47 0.843 2000.000 0.000 0.843 3000.000 0.000 0.352
12 200.00 1200.00 27 556 36 0.843 2000.000 0.000 0.843 3000.000 0.000 0.352
13 216.67 1200.00 27 545 29 0.843 2000.000 0.000 0.843 3000.000 0.000 0.352
14 233.33 1200.00 24 515 34 0.843 2000.000 0.000 0.843 3000.000 0.000 0.352
15 250.00 1200.00 26 506 38 0.843 2000.000 0.000 0.843 3000.000 0.000 0.352
16 266.67 1200.00 16 485 37 0.843 2000.000 0.000 0.843 3000.000 0.000 0.352
17 283.33 1200.00 21 546 44 0.843 2000.000 0.000 0.843 3000.000 0.000 0.352
18 300.00 1200.00 14 525 46 0.843 2000.000 0.000 0.843 3000.000 0.000 0.352
19 316.67 1200.00 18 552 47 0.843 2000.000 0.000 0.843 3000.000 0.000 0.352
20 333.33 1200.00 19 512 41 0.843 2000.000 0.000 0.843 3000.000 0.000 0.352
21 350.00 1200.00 19 485 39 0.843 2000.000 0.000 0.843 3000.000 0.000 0.352
22 366.67 1200.00 28 496 31 0.843 2000.000 0.000 0.843 3000.000 0.000 0.352
23 383.33 1200.00 31 507 29 0.843 2000.000 0.000 0.843 3000.000 0.000 0.352
24 400.00 1200.00 27 527 35 0.843 2000.000 0.000 0.843 3000.000 0.000 0.352
25 416.67 1200.00 22 526 38 0.843 2000.000 0.000 0.843 3000.000 0.000 0.352
26 433.33 1200.00 25 521 28 0.843 2000.000 0.000 0.843 3000.000 0.000 0.352
27 450.00 1200.00 16 542 40 0.843 2000.000 0.000 0.843 3000.000 0.000 0.352
28 466.67 1200.00 14 539 56 0.843 2000.000 0.000 0.843 3000.000 0.000 0.352
29 483.33 1200.00 15 505 49 0.843 2000.000 0.000 0.843 3000.000 0.000 0.352
30 500.00 1200.00 23 563 54 0.843 2000.000 0.000 0.843 3000.000 0.000 0.352
31 516.67 1200.00 21 528 61 0.843 2000.000 0.000 0.843 3000.000 0.000 0.352
32 533.33 1200.00 30 507 59 0.843 2000.000 0.000 0.843 3000.000 0.000 0.352
33 550.00 1200.00 13 531 49 0.843 2000.000 0.000 0.843 3000.000 0.000 0.352
34 566.67 1200.00 17 582 29 0.843 2000.000 0.000 0.843 3000.000 0.000 0.352
35 583.33 1200.00 25 533 47 0.843 2000.000 0.000 0.843 3000.000 0.000 0.352
36 600.00 1200.00 22 547 39 0.843 2000.000 0.000 0.843 3000.000 0.000 0.352
37 616.67 1200.00 20 557 31 0.843 2000.000 0.000 0.843 3000.000 0.000 0.352
38 633.33 1200.00 19 567 60 0.843 2000.000 0.000 0.843 3000.000 0.000 0.352
39 650.00 1200.00 18 576 63 0.843 2000.000 0.000 0.843 3000.000 0.000 0.352
40 666.67 1200.00 23 552 54 0.843 2000.000 0.000 0.843 3000.000 0.000 0.352
41 683.33 1200.00 16 504 66 0.843 2000.000 0.000 0.843 3000.000 0.000 0.352
42 700.00 1200.00 20 507 56 0.843 2000.000 0.000 0.843 3000.000 0.000 0.352
43 716.67 1200.00 15 515 69 0.843 2000.000 0.000 0.843 3000.000 0.000 0.352
44 733.33 1200.00 28 499 47 0.843 2000.000 0.000 0.843 3000.000 0.000 0.352
45 750.00 1200.00 24 552 49 0.843 2000.000 0.000 0.843 3000.000 0.000 0.352
46 766.67 1200.00 12 504 43 0.843 2000.000 0.000 0.843 3000.000 0.000 0.352
47 783.33 1200.00 25 555 37 0.843 2000.000 0.000 0.843 3000.000 0.000 0.352
48 800.00 1200.00 29 516 36 0.843 2000.000 0.000 0.843 3000.000 0.000 0.352
49 816.67 1200.00 25 511 31 0.843 2000.000 0.000 0.843 3000.000 0.000 0.352
50 833.34 1200.00 17 501 35 0.843 2000.000 0.000 0.843 3000.000 0.000 0.352
51 850.00 1200.00 19 513 59 0.843 2000.000 0.000 0.843 3000.000 0.000 0.352
52 866.67 1200.00 21 486 57 0.843 2000.000 0.000 0.843 3000.000 0.000 0.352
53 883.34 1200.00 25 509 46 0.843 2000.000 0.000 0.843 3000.000 0.000 0.352
54 900.00 1200.00 18 517 38 0.843 2000.000 0.000 0.843 3000.000 0.000 0.352
55 916.67 1200.00 25 484 39 0.843 2000.000 0.000 0.843 3000.000 0.000 0.352
56 933.34 1200.00 20 502 46 0.843 2000.000 0.000 0.843 3000.000 0.000 0.352
57 950.00 1200.00 19 495 30 0.843 2000.000 0.000 0.843 3000.000 0.000 0.352
58 966.67 1200.00 19 523 47 0.843 2000.000 0.000 0.843 3000.000 0.000 0.352
59 983.34 1200.00 18 523 51 0.843 2000.000 0.000 0.843 3000.000 0.000 0.352
60 1000.00 1200.00 13 559 28 0.843 2000.000 0.000 0.843 3000.000 0.000 0.352
61 1016.67 1200.00 20 484 47 0.843 2000.000 0.000 0.843 3000.000 0.000 0.352
62 1033.34 1200.00 20 534 40 0.843 2000.000 0.000 0.843 3000.000 0.000 0.352
63 1050.00 1200.00 22 503 37 0.843 2000.000 0.000 0.843 3000.000 0.000 0.352
64 1066.67 1200.00 31 498 47 0.843 2000.000 0.000 0.843 3000.000 0.000 0.352
65 1083.34 1200.00 21 499 44 0.843 2000.000 0.000 0.843 3000.000 0.000 0.352
66 1100.00 1200.00 23 523 33 0.843 2000.000 0.000 0.843 3000.000 0.000 0.352
67 1116.67 1200.00 23 539 28 0.843 2000.000 0.000 0.843 3000.000 0.000 0.352
68 1133.34 1200.00 24 504 34 0.843 2000.000 0.000 0.843 3000.000 0.000 0.352
69 1150.00 1200.00 21 511 34 0.843 2000.000 0.000 0.843 3000.000 0.000 0.352
70 1166.67 1200.00 23 490 32 0.843 2000.000 0.000 0.843 3000.000 0.000 0.352
71 1183.34 1200.00 28 500 37 0.843 2000.000 0.000 0.843 3000.000 0.000 0.352
72 1200.00 1200.00 20 536 33 0.843 2000.000 0.000 0.843 3000.000 0.000 0.352
73 1216.67 1200.00 30 546 32 0.843 2000.000 0.000 0.843 3000.000 0.000 0.352
74 1233.34 1200.00 27 551 25 0.843 2000.000 0.000 0.843 3000.000 0.000 0.352
75 1250.00 1200.00 24 523 30 0.843 2000.000 0.000 0.843 3000.000 0.000 0.352
76 1266.67 1200.00 26 543 25 0.843 2000.000 0.000 0.843 3000.000 0.000 0.352
77 1283.34 1200.00 19 559 35 0.843 2000.000 0.000 0.843 3000.000 0.000 0.352
78 1300.00 1200.00 19 521 38 0.843 2000.000 0.000 0.843 3000.000 0.000 0.352
79 1316.67 1200.00 15 515 51 0.843 2000.000 0.000 0.843 3000.000 0.000 0.352
80 1333.34 1200.00 34 563 40 0.843 2000.000 0.000 0.843 3000.000 0.000 0.352
81 1350.00 1200.00 17 517 33 0.843 2000.000 0.000 0.843 3000.000 0.000 0.352
82 1366.67 1200.00 23 542 33 0.843 2000.000 0.000 0.843 3000.000 0.000 0.352
83 1383.34 1200.00 26 546 33 0.843 2000.000 0.000 0.843 3000.000 0.000 0.352
84 1400.00 1200.00 27 544 29 0.843 2000.000 0.000 0.843 3000.000 0.000 0.352
85 1416.67 1200.00 30 503 33 0.843 2000.000 0.000 0.843 3000.000 0.000 0.352
86 1433.34 1200.00 32 566 48 0.843 2000.000 0.000 0.843 3000.000 0.000 0.352
87 1450.00 1200.00 28 493 48 0.843 2000.000 0.000 0.843 3000.000 0.000 0.352
88 1466.67 1200.00 15 513 52 0.843 2000.000 0.000 0.843 3000.000 0.000 0.352
89 1483.34 1200.00 26 547 58 0.843 2000.000 0.000 0.843 3000.000 0.000 0.352
90 1500.00 1200.00 16 544 55 0.843 2000.000 0.000 0.843 3000.000 0.000 0.352
91 1516.67 1200.00 27 481 45 0.843 2000.000 0.000 0.843 3000.000 0.000 0.352
92 1533.34 1200.00 17 526 50 0.843 2000.000 0.000 0.843 3000.000 0.000 0.352
93 1550.00 1200.00 23 529 43 0.843 2000.000 0.000 0.843 3000.000 0.000 0.352
94 1566.67 1200.00 17 522 38 0.843 2000.000 0.000 0.843 3000.000 0.000 0.352
95 1583.34 1200.00 24 471 37 0.843 2000.000 0.000 0.843 3000.000 0.000 0.352
96 1600.00 1200.00 39 506 42 0.843 2000.000 0.000 0.843 3000.000 0.000 0.352
97 1616.67 1200.00 25 530 44 0.843 2000.000 0.000 0.843 3000.000 0.000 0.352
98 1633.34 1200.00 17 501 47 0.843 2000.000 0.000 0.843 3000.000 0.000 0.352
99 1650.00 1200.00 16 513 75 0.843 2000.000 0.000 0.843 3000.000 0.000 0.352
100 1666.67 1200.00 13 556 66 0.843 2000.000 0.000 0.843 3000.000 0.000 0.352
101 1683.34 1200.00 24 485 61 0.843 2000.000 0.000 0.843 3000.000 0.000 0.352
102 1700.00 1200.00 19 527 61 0.843 2000.000 0.000 0.843 3000.000 0.000 0.352
103 1716.67 1200.00 20 489 51 0.843 2000.000 0.000 0.843 3000.000 0.000 0.352
104 1733.34 1200.00 19 486 65 0.843 2000.000 0.000 0.843 3000.000 0.000 0.352
105 1750.00 1200.00 16 539 57 0.843 2000.000 0.000 0.843 3000.000 0.000 0.352
106 1766.67 1200.00 21 529 53 0.843 2000.000 0.000 0.843 3000.000 0.000 0.352
107 1783.34 1200.00 22 551 38 0.843 2000.000 0.000 0.843 3000.000 0.000 0.352
108 1800.00 1200.00 19 553 47 0.843 2000.000 0.000 0.843 3000.000 0.000 0.352
109 1816.67 1200.00 14 517 31 0.843 2000.000 0.000 0.843 3000.000 0.000 0.352
110 1833.34 1200.00 19 538 31 0.843 2000.000 0.000 0.843 3000.000 0.000 0.352
111 1850.00 1200.00 20 518 48 0.843 2000.000 0.000 0.843 3000.000 0.000 0.352
112 1866.67 1200.00 18 473 46 0.843 2000.000 0.000 0.843 3000.000 0.000 0.352
113 1883.34 1200.00 22 493 48 0.843 2000.000 0.000 0.843 3000.000 0.000 0.352
114 1900.00 1200.00 16 474 53 0.843 2000.000 0.000 0.843 3000.000 0.000 0.352
115 1916.67 1200.00 13 509 50 0.843 2000.000 0.000 0.843 3000.000 0.000 0.352
116 1933.34 1200.00 20 487 34 0.843 2000.000 0.000 0.843 3000.000 0.000 0.352
117 1950.00 1200.00 28 504 45 0.843 2000.000 0.000 0.843 3000.000 0.000 0.352
118 1966.67 1200.00 15 511 26 0.843 2000.000 0.000 0.843 3000.000 0.000 0.352
119 1983.34 1200.00 16 449 37 0.843 2000.000 0.000 0.843 3000.000 0.000 0.352
