# BinNR microsec tot-time (s)  O-Beam H-beam AUX Ampl1(V) f1(Hz) phase1(deg) Ampl1(V) f1(Hz) phase1(deg) chi(pos)
0 0.00 1200.00 60 252 226 0.843 2000.000 0.000 0.843 3000.000 0.000 -0.516
1 16.67 1200.00 109 224 227 0.843 2000.000 0.000 0.843 3000.000 0.000 -0.516
2 33.33 1200.00 84 267 231 0.843 2000.000 0.000 0.843 3000.000 0.000 -0.516
3 50.00 1200.00 77 293 219 0.843 2000.000 0.000 0.843 3000.000 0.000 -0.516
4 66.67 1200.00 75 294 227 0.843 2000.000 0.000 0.843 3000.000 0.000 -0.516
5 83.33 1200.00 81 317 243 0.843 2000.000 0.000 0.843 3000.000 0.000 -0.516
6 100.00 1200.00 85 307 203 0.843 2000.000 0.000 0.843 3000.000 0.000 -0.516
7 116.67 1200.00 69 290 223 0.843 2000.000 0.000 0.843 3000.000 0.000 -0.516
8 133.33 1200.00 80 314 217 0.843 2000.000 0.000 0.843 3000.000 0.000 -0.516
9 150.00 1200.00 89 305 224 0.843 2000.000 0.000 0.843 3000.000 0.000 -0.516
10 166.67 1200.00 69 285 232 0.843 2000.000 0.000 0.843 3000.000 0.000 -0.516
11 183.33 1200.00 81 241 224 0.843 2000.000 0.000 0.843 3000.000 0.000 -0.516
12 200.00 1200.00 54 219 248 0.843 2000.000 0.000 0.843 3000.000 0.000 -0.516
13 216.67 1200.00 61 260 231 0.843 2000.000 0.000 0.843 3000.000 0.000 -0.516
14 233.33 1200.00 58 241 233 0.843 2000.000 0.000 0.843 3000.000 0.000 -0.516
15 250.00 1200.00 73 225 209 0.843 2000.000 0.000 0.843 3000.000 0.000 -0.516
16 266.67 1200.00 65 254 200 0.843 2000.000 0.000 0.843 3000.000 0.000 -0.516
17 283.33 1200.00 98 255 229 0.843 2000.000 0.000 0.843 3000.000 0.000 -0.516
18 300.00 1200.00 81 234 243 0.843 2000.000 0.000 0.843 3000.000 0.000 -0.516
19 316.67 1200.00 77 256 223 0.843 2000.000 0.000 0.843 3000.000 0.000 -0.516
20 333.33 1200.00 75 245 217 0.843 2000.000 0.000 0.843 3000.000 0.000 -0.516
21 350.00 1200.00 92 261 206 0.843 2000.000 0.000 0.843 3000.000 0.000 -0.516
22 366.67 1200.00 93 308 223 0.843 2000.000 0.000 0.843 3000.000 0.000 -0.516
23 383.33 1200.00 89 238 193 0.843 2000.000 0.000 0.843 3000.000 0.000 -0.516
24 400.00 1200.00 85 270 178 0.843 2000.000 0.000 0.843 3000.000 0.000 -0.516
25 416.67 1200.00 84 238 202 0.843 2000.000 0.000 0.843 3000.000 0.000 -0.516
26 433.33 1200.00 73 233 212 0.843 2000.000 0.000 0.843 3000.000 0.000 -0.516
27 450.00 1200.00 63 246 185 0.843 2000.000 0.000 0.843 3000.000 0.000 -0.516
28 466.67 1200.00 79 248 172 0.843 2000.000 0.000 0.843 3000.000 0.000 -0.516
29 483.33 1200.00 89 238 183 0.843 2000.000 0.000 0.843 3000.000 0.000 -0.516
30 500.00 1200.00 86 246 159 0.843 2000.000 0.000 0.843 3000.000 0.000 -0.516
31 516.67 1200.00 61 257 167 0.843 2000.000 0.000 0.843 3000.000 0.000 -0.516
32 533.33 1200.00 77 230 195 0.843 2000.000 0.000 0.843 3000.000 0.000 -0.516
33 550.00 1200.00 64 256 167 0.843 2000.000 0.000 0.843 3000.000 0.000 -0.516
34 566.67 1200.00 76 256 248 0.843 2000.000 0.000 0.843 3000.000 0.000 -0.516
35 583.33 1200.00 76 251 224 0.843 2000.000 0.000 0.843 3000.000 0.000 -0.516
36 600.00 1200.00 71 237 266 0.843 2000.000 0.000 0.843 3000.000 0.000 -0.516
37 616.67 1200.00 81 228 222 0.843 2000.000 0.000 0.843 3000.000 0.000 -0.516
38 633.33 1200.00 58 249 221 0.843 2000.000 0.000 0.843 3000.000 0.000 -0.516
39 650.00 1200.00 76 278 235 0.843 2000.000 0.000 0.843 3000.000 0.000 -0.516
40 666.67 1200.00 60 303 239 0.843 2000.000 0.000 0.843 3000.000 0.000 -0.516
41 683.33 1200.00 83 321 235 0.843 2000.000 0.000 0.843 3000.000 0.000 -0.516
42 700.00 1200.00 94 333 224 0.843 2000.000 0.000 0.843 3000.000 0.000 -0.516
43 716.67 1200.00 84 310 213 0.843 2000.000 0.000 0.843 3000.000 0.000 -0.516
44 733.33 1200.00 91 336 217 0.843 2000.000 0.000 0.843 3000.000 0.000 -0.516
45 750.00 1200.00 77 304 237 0.843 2000.000 0.000 0.843 3000.000 0.000 -0.516
46 766.67 1200.00 78 322 216 0.843 2000.000 0.000 0.843 3000.000 0.000 -0.516
47 783.33 1200.00 83 295 213 0.843 2000.000 0.000 0.843 3000.000 0.000 -0.516
48 800.00 1200.00 108 260 201 0.843 2000.000 0.000 0.843 3000.000 0.000 -0.516
49 816.67 1200.00 90 243 207 0.843 2000.000 0.000 0.843 3000.000 0.000 -0.516
50 833.34 1200.00 83 220 178 0.843 2000.000 0.000 0.843 3000.000 0.000 -0.516
51 850.00 1200.00 82 221 187 0.843 2000.000 0.000 0.843 3000.000 0.000 -0.516
52 866.67 1200.00 69 256 201 0.843 2000.000 0.000 0.843 3000.000 0.000 -0.516
53 883.34 1200.00 65 238 200 0.843 2000.000 0.000 0.843 3000.000 0.000 -0.516
54 900.00 1200.00 90 252 167 0.843 2000.000 0.000 0.843 3000.000 0.000 -0.516
55 916.67 1200.00 71 233 177 0.843 2000.000 0.000 0.843 3000.000 0.000 -0.516
56 933.34 1200.00 84 233 179 0.843 2000.000 0.000 0.843 3000.000 0.000 -0.516
57 950.00 1200.00 83 252 211 0.843 2000.000 0.000 0.843 3000.000 0.000 -0.516
58 966.67 1200.00 86 250 222 0.843 2000.000 0.000 0.843 3000.000 0.000 -0.516
59 983.34 1200.00 89 236 203 0.843 2000.000 0.000 0.843 3000.000 0.000 -0.516
60 1000.00 1200.00 86 248 212 0.843 2000.000 0.000 0.843 3000.000 0.000 -0.516
61 1016.67 1200.00 80 232 206 0.843 2000.000 0.000 0.843 3000.000 0.000 -0.516
62 1033.34 1200.00 77 244 222 0.843 2000.000 0.000 0.843 3000.000 0.000 -0.516
63 1050.00 1200.00 94 277 218 0.843 2000.000 0.000 0.843 3000.000 0.000 -0.516
64 1066.67 1200.00 71 310 232 0.843 2000.000 0.000 0.843 3000.000 0.000 -0.516
65 1083.34 1200.00 80 330 226 0.843 2000.000 0.000 0.843 3000.000 0.000 -0.516
66 1100.00 1200.00 78 319 236 0.843 2000.000 0.000 0.843 3000.000 0.000 -0.516
67 1116.67 1200.00 68 309 199 0.843 2000.000 0.000 0.843 3000.000 0.000 -0.516
68 1133.34 1200.00 64 290 232 0.843 2000.000 0.000 0.843 3000.000 0.000 -0.516
69 1150.00 1200.00 84 258 237 0.843 2000.000 0.000 0.843 3000.000 0.000 -0.516
70 1166.67 1200.00 69 263 199 0.843 2000.000 0.000 0.843 3000.000 0.000 -0.516
71 1183.34 1200.00 61 270 216 0.843 2000.000 0.000 0.843 3000.000 0.000 -0.516
72 1200.00 1200.00 79 257 193 0.843 2000.000 0.000 0.843 3000.000 0.000 -0.516
73 1216.67 1200.00 59 239 214 0.843 2000.000 0.000 0.843 3000.000 0.000 -0.516
74 1233.34 1200.00 58 247 227 0.843 2000.000 0.000 0.843 3000.000 0.000 -0.516
75 1250.00 1200.00 54 252 229 0.843 2000.000 0.000 0.843 3000.000 0.000 -0.516
76 1266.67 1200.00 75 213 241 0.843 2000.000 0.000 0.843 3000.000 0.000 -0.516
77 1283.34 1200.00 65 224 244 0.843 2000.000 0.000 0.843 3000.000 0.000 -0.516
78 1300.00 1200.00 82 246 222 0.843 2000.000 0.000 0.843 3000.000 0.000 -0.516
79 1316.67 1200.00 99 231 226 0.843 2000.000 0.000 0.843 3000.000 0.000 -0.516
80 1333.34 1200.00 93 250 232 0.843 2000.000 0.000 0.843 3000.000 0.000 -0.516
81 1350.00 1200.00 81 254 217 0.843 2000.000 0.000 0.843 3000.000 0.000 -0.516
82 1366.67 1200.00 75 234 242 0.843 2000.000 0.000 0.843 3000.000 0.000 -0.516
83 1383.34 1200.00 88 254 222 0.843 2000.000 0.000 0.843 3000.000 0.000 -0.516
84 1400.00 1200.00 79 242 206 0.843 2000.000 0.000 0.843 3000.000 0.000 -0.516
85 1416.67 1200.00 98 246 202 0.843 2000.000 0.000 0.843 3000.000 0.000 -0.516
86 1433.34 1200.00 93 252 216 0.843 2000.000 0.000 0.843 3000.000 0.000 -0.516
87 1450.00 1200.00 105 258 176 0.843 2000.000 0.000 0.843 3000.000 0.000 -0.516
88 1466.67 1200.00 85 230 185 0.843 2000.000 0.000 0.843 3000.000 0.000 -0.516
89 1483.34 1200.00 93 253 172 0.843 2000.000 0.000 0.843 3000.000 0.000 -0.516
90 1500.00 1200.00 84 261 159 0.843 2000.000 0.000 0.843 3000.000 0.000 -0.516
91 1516.67 1200.00 77 206 185 0.843 2000.000 0.000 0.843 3000.000 0.000 -0.516
92 1533.34 1200.00 86 257 170 0.843 2000.000 0.000 0.843 3000.000 0.000 -0.516
93 1550.00 1200.00 73 230 195 0.843 2000.000 0.000 0.843 3000.000 0.000 -0.516
94 1566.67 1200.00 69 227 212 0.843 2000.000 0.000 0.843 3000.000 0.000 -0.516
95 1583.34 1200.00 69 236 219 0.843 2000.000 0.000 0.843 3000.000 0.000 -0.516
96 1600.00 1200.00 58 236 237 0.843 2000.000 0.000 0.843 3000.000 0.000 -0.516
97 1616.67 1200.00 63 254 208 0.843 2000.000 0.000 0.843 3000.000 0.000 -0.516
98 1633.34 1200.00 58 254 222 0.843 2000.000 0.000 0.843 3000.000 0.000 -0.516
99 1650.00 1200.00 70 269 256 0.843 2000.000 0.000 0.843 3000.000 0.000 -0.516
100 1666.67 1200.00 83 314 246 0.843 2000.000 0.000 0.843 3000.000 0.000 -0.516
101 1683.34 1200.00 74 313 214 0.843 2000.000 0.000 0.843 3000.000 0.000 -0.516
102 1700.00 1200.00 76 300 238 0.843 2000.000 0.000 0.843 3000.000 0.000 -0.516
103 1716.67 1200.00 87 303 216 0.843 2000.000 0.000 0.843 3000.000 0.000 -0.516
104 1733.34 1200.00 77 311 238 0.843 2000.000 0.000 0.843 3000.000 0.000 -0.516
105 1750.00 1200.00 85 301 242 0.843 2000.000 0.000 0.843 3000.000 0.000 -0.516
106 1766.67 1200.00 96 269 257 0.843 2000.000 0.000 0.843 3000.000 0.000 -0.516
107 1783.34 1200.00 82 241 225 0.843 2000.000 0.000 0.843 3000.000 0.000 -0.516
108 1800.00 1200.00 85 269 217 0.843 2000.000 0.000 0.843 3000.000 0.000 -0.516
109 1816.67 1200.00 66 257 195 0.843 2000.000 0.000 0.843 3000.000 0.000 -0.516
110 1833.34 1200.00 88 250 189 0.843 2000.000 0.000 0.843 3000.000 0.000 -0.516
111 1850.00 1200.00 78 242 167 0.843 2000.000 0.000 0.843 3000.000 0.000 -0.516
112 1866.67 1200.00 93 223 180 0.843 2000.000 0.000 0.843 3000.000 0.000 -0.516
113 1883.34 1200.00 77 224 175 0.843 2000.000 0.000 0.843 3000.000 0.000 -0.516
114 1900.00 1200.00 76 230 198 0.843 2000.000 0.000 0.843 3000.000 0.000 -0.516
115 1916.67 1200.00 92 240 172 0.843 2000.000 0.000 0.843 3000.000 0.000 -0.516
116 1933.34 1200.00 88 232 191 0.843 2000.000 0.000 0.843 3000.000 0.000 -0.516
117 1950.00 1200.00 90 232 196 0.843 2000.000 0.000 0.843 3000.000 0.000 -0.516
118 1966.67 1200.00 99 236 219 0.843 2000.000 0.000 0.843 3000.000 0.000 -0.516
119 1983.34 1200.00 67 246 193 0.843 2000.000 0.000 0.843 3000.000 0.000 -0.516
