# BinNR microsec tot-time (s)  O-Beam H-beam AUX Ampl1(V) f1(Hz) phase1(deg) Ampl1(V) f1(Hz) phase1(deg) chi(pos)
0 0.00 1200.00 66 236 207 0.843 2000.000 0.000 0.843 3000.000 0.000 -0.648
1 16.67 1200.00 91 248 232 0.843 2000.000 0.000 0.843 3000.000 0.000 -0.648
2 33.33 1200.00 76 237 246 0.843 2000.000 0.000 0.843 3000.000 0.000 -0.648
3 50.00 1200.00 78 273 220 0.843 2000.000 0.000 0.843 3000.000 0.000 -0.648
4 66.67 1200.00 91 248 213 0.843 2000.000 0.000 0.843 3000.000 0.000 -0.648
5 83.33 1200.00 73 263 227 0.843 2000.000 0.000 0.843 3000.000 0.000 -0.648
6 100.00 1200.00 87 274 218 0.843 2000.000 0.000 0.843 3000.000 0.000 -0.648
7 116.67 1200.00 83 262 199 0.843 2000.000 0.000 0.843 3000.000 0.000 -0.648
8 133.33 1200.00 66 262 241 0.843 2000.000 0.000 0.843 3000.000 0.000 -0.648
9 150.00 1200.00 82 263 229 0.843 2000.000 0.000 0.843 3000.000 0.000 -0.648
10 166.67 1200.00 65 248 227 0.843 2000.000 0.000 0.843 3000.000 0.000 -0.648
11 183.33 1200.00 73 235 236 0.843 2000.000 0.000 0.843 3000.000 0.000 -0.648
12 200.00 1200.00 64 241 221 0.843 2000.000 0.000 0.843 3000.000 0.000 -0.648
13 216.67 1200.00 68 231 227 0.843 2000.000 0.000 0.843 3000.000 0.000 -0.648
14 233.33 1200.00 58 244 236 0.843 2000.000 0.000 0.843 3000.000 0.000 -0.648
15 250.00 1200.00 74 225 217 0.843 2000.000 0.000 0.843 3000.000 0.000 -0.648
16 266.67 1200.00 81 265 230 0.843 2000.000 0.000 0.843 3000.000 0.000 -0.648
17 283.33 1200.00 89 248 245 0.843 2000.000 0.000 0.843 3000.000 0.000 -0.648
18 300.00 1200.00 78 198 245 0.843 2000.000 0.000 0.843 3000.000 0.000 -0.648
19 316.67 1200.00 67 269 219 0.843 2000.000 0.000 0.843 3000.000 0.000 -0.648
20 333.33 1200.00 84 235 220 0.843 2000.000 0.000 0.843 3000.000 0.000 -0.648
21 350.00 1200.00 71 233 228 0.843 2000.000 0.000 0.843 3000.000 0.000 -0.648
22 366.67 1200.00 86 236 258 0.843 2000.000 0.000 0.843 3000.000 0.000 -0.648
23 383.33 1200.00 69 253 240 0.843 2000.000 0.000 0.843 3000.000 0.000 -0.648
24 400.00 1200.00 78 231 226 0.843 2000.000 0.000 0.843 3000.000 0.000 -0.648
25 416.67 1200.00 89 263 224 0.843 2000.000 0.000 0.843 3000.000 0.000 -0.648
26 433.33 1200.00 76 220 232 0.843 2000.000 0.000 0.843 3000.000 0.000 -0.648
27 450.00 1200.00 102 219 214 0.843 2000.000 0.000 0.843 3000.000 0.000 -0.648
28 466.67 1200.00 86 224 207 0.843 2000.000 0.000 0.843 3000.000 0.000 -0.648
29 483.33 1200.00 76 230 192 0.843 2000.000 0.000 0.843 3000.000 0.000 -0.648
30 500.00 1200.00 89 265 209 0.843 2000.000 0.000 0.843 3000.000 0.000 -0.648
31 516.67 1200.00 69 237 199 0.843 2000.000 0.000 0.843 3000.000 0.000 -0.648
32 533.33 1200.00 88 259 237 0.843 2000.000 0.000 0.843 3000.000 0.000 -0.648
33 550.00 1200.00 82 239 213 0.843 2000.000 0.000 0.843 3000.000 0.000 -0.648
34 566.67 1200.00 80 234 203 0.843 2000.000 0.000 0.843 3000.000 0.000 -0.648
35 583.33 1200.00 71 233 220 0.843 2000.000 0.000 0.843 3000.000 0.000 -0.648
36 600.00 1200.00 67 252 193 0.843 2000.000 0.000 0.843 3000.000 0.000 -0.648
37 616.67 1200.00 80 279 238 0.843 2000.000 0.000 0.843 3000.000 0.000 -0.648
38 633.33 1200.00 71 250 225 0.843 2000.000 0.000 0.843 3000.000 0.000 -0.648
39 650.00 1200.00 60 277 210 0.843 2000.000 0.000 0.843 3000.000 0.000 -0.648
40 666.67 1200.00 101 269 204 0.843 2000.000 0.000 0.843 3000.000 0.000 -0.648
41 683.33 1200.00 78 239 201 0.843 2000.000 0.000 0.843 3000.000 0.000 -0.648
42 700.00 1200.00 83 308 181 0.843 2000.000 0.000 0.843 3000.000 0.000 -0.648
43 716.67 1200.00 76 298 212 0.843 2000.000 0.000 0.843 3000.000 0.000 -0.648
44 733.33 1200.00 81 276 199 0.843 2000.000 0.000 0.843 3000.000 0.000 -0.648
45 750.00 1200.00 100 272 222 0.843 2000.000 0.000 0.843 3000.000 0.000 -0.648
46 766.67 1200.00 87 269 240 0.843 2000.000 0.000 0.843 3000.000 0.000 -0.648
47 783.33 1200.00 82 249 239 0.843 2000.000 0.000 0.843 3000.000 0.000 -0.648
48 800.00 1200.00 82 237 231 0.843 2000.000 0.000 0.843 3000.000 0.000 -0.648
49 816.67 1200.00 88 223 225 0.843 2000.000 0.000 0.843 3000.000 0.000 -0.648
50 833.34 1200.00 70 274 236 0.843 2000.000 0.000 0.843 3000.000 0.000 -0.648
51 850.00 1200.00 104 239 224 0.843 2000.000 0.000 0.843 3000.000 0.000 -0.648
52 866.67 1200.00 76 224 207 0.843 2000.000 0.000 0.843 3000.000 0.000 -0.648
53 883.34 1200.00 83 241 216 0.843 2000.000 0.000 0.843 3000.000 0.000 -0.648
54 900.00 1200.00 100 273 201 0.843 2000.000 0.000 0.843 3000.000 0.000 -0.648
55 916.67 1200.00 95 291 215 0.843 2000.000 0.000 0.843 3000.000 0.000 -0.648
56 933.34 1200.00 83 259 205 0.843 2000.000 0.000 0.843 3000.000 0.000 -0.648
57 950.00 1200.00 80 285 228 0.843 2000.000 0.000 0.843 3000.000 0.000 -0.648
58 966.67 1200.00 81 232 218 0.843 2000.000 0.000 0.843 3000.000 0.000 -0.648
59 983.34 1200.00 77 232 226 0.843 2000.000 0.000 0.843 3000.000 0.000 -0.648
60 1000.00 1200.00 86 219 222 0.843 2000.000 0.000 0.843 3000.000 0.000 -0.648
61 1016.67 1200.00 85 241 252 0.843 2000.000 0.000 0.843 3000.000 0.000 -0.648
62 1033.34 1200.00 84 259 247 0.843 2000.000 0.000 0.843 3000.000 0.000 -0.648
63 1050.00 1200.00 82 234 239 0.843 2000.000 0.000 0.843 3000.000 0.000 -0.648
64 1066.67 1200.00 90 235 224 0.843 2000.000 0.000 0.843 3000.000 0.000 -0.648
65 1083.34 1200.00 87 288 237 0.843 2000.000 0.000 0.843 3000.000 0.000 -0.648
66 1100.00 1200.00 89 253 200 0.843 2000.000 0.000 0.843 3000.000 0.000 -0.648
67 1116.67 1200.00 98 255 222 0.843 2000.000 0.000 0.843 3000.000 0.000 -0.648
68 1133.34 1200.00 79 281 219 0.843 2000.000 0.000 0.843 3000.000 0.000 -0.648
69 1150.00 1200.00 79 288 256 0.843 2000.000 0.000 0.843 3000.000 0.000 -0.648
70 1166.67 1200.00 86 245 221 0.843 2000.000 0.000 0.843 3000.000 0.000 -0.648
71 1183.34 1200.00 73 213 238 0.843 2000.000 0.000 0.843 3000.000 0.000 -0.648
72 1200.00 1200.00 84 230 227 0.843 2000.000 0.000 0.843 3000.000 0.000 -0.648
73 1216.67 1200.00 80 257 221 0.843 2000.000 0.000 0.843 3000.000 0.000 -0.648
74 1233.34 1200.00 79 235 211 0.843 2000.000 0.000 0.843 3000.000 0.000 -0.648
75 1250.00 1200.00 78 229 208 0.843 2000.000 0.000 0.843 3000.000 0.000 -0.648
76 1266.67 1200.00 82 242 220 0.843 2000.000 0.000 0.843 3000.000 0.000 -0.648
77 1283.34 1200.00 81 219 235 0.843 2000.000 0.000 0.843 3000.000 0.000 -0.648
78 1300.00 1200.00 95 231 213 0.843 2000.000 0.000 0.843 3000.000 0.000 -0.648
79 1316.67 1200.00 100 250 233 0.843 2000.000 0.000 0.843 3000.000 0.000 -0.648
80 1333.34 1200.00 68 239 253 0.843 2000.000 0.000 0.843 3000.000 0.000 -0.648
81 1350.00 1200.00 83 226 232 0.843 2000.000 0.000 0.843 3000.000 0.000 -0.648
82 1366.67 1200.00 65 234 216 0.843 2000.000 0.000 0.843 3000.000 0.000 -0.648
83 1383.34 1200.00 74 258 222 0.843 2000.000 0.000 0.843 3000.000 0.000 -0.648
84 1400.00 1200.00 73 239 227 0.843 2000.000 0.000 0.843 3000.000 0.000 -0.648
85 1416.67 1200.00 84 229 227 0.843 2000.000 0.000 0.843 3000.000 0.000 -0.648
86 1433.34 1200.00 77 233 210 0.843 2000.000 0.000 0.843 3000.000 0.000 -0.648
87 1450.00 1200.00 83 202 217 0.843 2000.000 0.000 0.843 3000.000 0.000 -0.648
88 1466.67 1200.00 80 174 224 0.843 2000.000 0.000 0.843 3000.000 0.000 -0.648
89 1483.34 1200.00 63 252 187 0.843 2000.000 0.000 0.843 3000.000 0.000 -0.648
90 1500.00 1200.00 80 265 208 0.843 2000.000 0.000 0.843 3000.000 0.000 -0.648
91 1516.67 1200.00 82 279 204 0.843 2000.000 0.000 0.843 3000.000 0.000 -0.648
92 1533.34 1200.00 66 244 212 0.843 2000.000 0.000 0.843 3000.000 0.000 -0.648
93 1550.00 1200.00 89 231 220 0.843 2000.000 0.000 0.843 3000.000 0.000 -0.648
94 1566.67 1200.00 71 253 215 0.843 2000.000 0.000 0.843 3000.000 0.000 -0.648
95 1583.34 1200.00 78 241 260 0.843 2000.000 0.000 0.843 3000.000 0.000 -0.648
96 1600.00 1200.00 74 227 223 0.843 2000.000 0.000 0.843 3000.000 0.000 -0.648
97 1616.67 1200.00 93 246 238 0.843 2000.000 0.000 0.843 3000.000 0.000 -0.648
98 1633.34 1200.00 88 222 221 0.843 2000.000 0.000 0.843 3000.000 0.000 -0.648
99 1650.00 1200.00 82 259 198 0.843 2000.000 0.000 0.843 3000.000 0.000 -0.648
100 1666.67 1200.00 80 242 195 0.843 2000.000 0.000 0.843 3000.000 0.000 -0.648
101 1683.34 1200.00 82 272 243 0.843 2000.000 0.000 0.843 3000.000 0.000 -0.648
102 1700.00 1200.00 94 274 206 0.843 2000.000 0.000 0.843 3000.000 0.000 -0.648
103 1716.67 1200.00 93 287 186 0.843 2000.000 0.000 0.843 3000.000 0.000 -0.648
104 1733.34 1200.00 83 248 215 0.843 2000.000 0.000 0.843 3000.000 0.000 -0.648
105 1750.00 1200.00 80 256 252 0.843 2000.000 0.000 0.843 3000.000 0.000 -0.648
106 1766.67 1200.00 98 242 243 0.843 2000.000 0.000 0.843 3000.000 0.000 -0.648
107 1783.34 1200.00 91 262 262 0.843 2000.000 0.000 0.843 3000.000 0.000 -0.648
108 1800.00 1200.00 104 224 222 0.843 2000.000 0.000 0.843 3000.000 0.000 -0.648
109 1816.67 1200.00 69 235 234 0.843 2000.000 0.000 0.843 3000.000 0.000 -0.648
110 1833.34 1200.00 92 222 254 0.843 2000.000 0.000 0.843 3000.000 0.000 -0.648
111 1850.00 1200.00 82 255 229 0.843 2000.000 0.000 0.843 3000.000 0.000 -0.648
112 1866.67 1200.00 83 263 187 0.843 2000.000 0.000 0.843 3000.000 0.000 -0.648
113 1883.34 1200.00 77 272 220 0.843 2000.000 0.000 0.843 3000.000 0.000 -0.648
114 1900.00 1200.00 88 273 224 0.843 2000.000 0.000 0.843 3000.000 0.000 -0.648
115 1916.67 1200.00 93 277 217 0.843 2000.000 0.000 0.843 3000.000 0.000 -0.648
116 1933.34 1200.00 90 261 224 0.843 2000.000 0.000 0.843 3000.000 0.000 -0.648
117 1950.00 1200.00 92 256 228 0.843 2000.000 0.000 0.843 3000.000 0.000 -0.648
118 1966.67 1200.00 89 274 249 0.843 2000.000 0.000 0.843 3000.000 0.000 -0.648
119 1983.34 1200.00 80 248 212 0.843 2000.000 0.000 0.843 3000.000 0.000 -0.648
