# BinNR microsec tot-time (s)  O-Beam H-beam AUX Ampl1(V) f1(Hz) phase1(deg) Ampl1(V) f1(Hz) phase1(deg) chi(pos)
0 0.00 1200.00 83 272 207 0.843 2000.000 0.000 0.843 3000.000 0.000 -0.791
1 16.67 1200.00 74 210 227 0.843 2000.000 0.000 0.843 3000.000 0.000 -0.791
2 33.33 1200.00 76 248 206 0.843 2000.000 0.000 0.843 3000.000 0.000 -0.791
3 50.00 1200.00 77 230 218 0.843 2000.000 0.000 0.843 3000.000 0.000 -0.791
4 66.67 1200.00 78 217 244 0.843 2000.000 0.000 0.843 3000.000 0.000 -0.791
5 83.33 1200.00 84 231 206 0.843 2000.000 0.000 0.843 3000.000 0.000 -0.791
6 100.00 1200.00 82 228 224 0.843 2000.000 0.000 0.843 3000.000 0.000 -0.791
7 116.67 1200.00 77 195 202 0.843 2000.000 0.000 0.843 3000.000 0.000 -0.791
8 133.33 1200.00 68 243 237 0.843 2000.000 0.000 0.843 3000.000 0.000 -0.791
9 150.00 1200.00 82 251 220 0.843 2000.000 0.000 0.843 3000.000 0.000 -0.791
10 166.67 1200.00 85 217 206 0.843 2000.000 0.000 0.843 3000.000 0.000 -0.791
11 183.33 1200.00 74 238 227 0.843 2000.000 0.000 0.843 3000.000 0.000 -0.791
12 200.00 1200.00 89 252 199 0.843 2000.000 0.000 0.843 3000.000 0.000 -0.791
13 216.67 1200.00 90 247 193 0.843 2000.000 0.000 0.843 3000.000 0.000 -0.791
14 233.33 1200.00 78 237 195 0.843 2000.000 0.000 0.843 3000.000 0.000 -0.791
15 250.00 1200.00 86 258 222 0.843 2000.000 0.000 0.843 3000.000 0.000 -0.791
16 266.67 1200.00 84 270 198 0.843 2000.000 0.000 0.843 3000.000 0.000 -0.791
17 283.33 1200.00 87 288 209 0.843 2000.000 0.000 0.843 3000.000 0.000 -0.791
18 300.00 1200.00 85 259 208 0.843 2000.000 0.000 0.843 3000.000 0.000 -0.791
19 316.67 1200.00 80 244 223 0.843 2000.000 0.000 0.843 3000.000 0.000 -0.791
20 333.33 1200.00 68 262 187 0.843 2000.000 0.000 0.843 3000.000 0.000 -0.791
21 350.00 1200.00 78 247 199 0.843 2000.000 0.000 0.843 3000.000 0.000 -0.791
22 366.67 1200.00 75 235 195 0.843 2000.000 0.000 0.843 3000.000 0.000 -0.791
23 383.33 1200.00 77 245 206 0.843 2000.000 0.000 0.843 3000.000 0.000 -0.791
24 400.00 1200.00 61 226 203 0.843 2000.000 0.000 0.843 3000.000 0.000 -0.791
25 416.67 1200.00 77 227 245 0.843 2000.000 0.000 0.843 3000.000 0.000 -0.791
26 433.33 1200.00 65 258 220 0.843 2000.000 0.000 0.843 3000.000 0.000 -0.791
27 450.00 1200.00 70 231 238 0.843 2000.000 0.000 0.843 3000.000 0.000 -0.791
28 466.67 1200.00 66 226 240 0.843 2000.000 0.000 0.843 3000.000 0.000 -0.791
29 483.33 1200.00 87 270 238 0.843 2000.000 0.000 0.843 3000.000 0.000 -0.791
30 500.00 1200.00 83 271 209 0.843 2000.000 0.000 0.843 3000.000 0.000 -0.791
31 516.67 1200.00 93 259 234 0.843 2000.000 0.000 0.843 3000.000 0.000 -0.791
32 533.33 1200.00 74 284 232 0.843 2000.000 0.000 0.843 3000.000 0.000 -0.791
33 550.00 1200.00 94 302 208 0.843 2000.000 0.000 0.843 3000.000 0.000 -0.791
34 566.67 1200.00 80 264 219 0.843 2000.000 0.000 0.843 3000.000 0.000 -0.791
35 583.33 1200.00 79 267 223 0.843 2000.000 0.000 0.843 3000.000 0.000 -0.791
36 600.00 1200.00 71 257 231 0.843 2000.000 0.000 0.843 3000.000 0.000 -0.791
37 616.67 1200.00 84 246 188 0.843 2000.000 0.000 0.843 3000.000 0.000 -0.791
38 633.33 1200.00 72 238 190 0.843 2000.000 0.000 0.843 3000.000 0.000 -0.791
39 650.00 1200.00 82 221 176 0.843 2000.000 0.000 0.843 3000.000 0.000 -0.791
40 666.67 1200.00 90 208 170 0.843 2000.000 0.000 0.843 3000.000 0.000 -0.791
41 683.33 1200.00 85 252 154 0.843 2000.000 0.000 0.843 3000.000 0.000 -0.791
42 700.00 1200.00 91 250 159 0.843 2000.000 0.000 0.843 3000.000 0.000 -0.791
43 716.67 1200.00 96 233 179 0.843 2000.000 0.000 0.843 3000.000 0.000 -0.791
44 733.33 1200.00 88 242 175 0.843 2000.000 0.000 0.843 3000.000 0.000 -0.791
45 750.00 1200.00 69 258 202 0.843 2000.000 0.000 0.843 3000.000 0.000 -0.791
46 766.67 1200.00 81 225 190 0.843 2000.000 0.000 0.843 3000.000 0.000 -0.791
47 783.33 1200.00 68 234 220 0.843 2000.000 0.000 0.843 3000.000 0.000 -0.791
48 800.00 1200.00 65 252 257 0.843 2000.000 0.000 0.843 3000.000 0.000 -0.791
49 816.67 1200.00 71 231 236 0.843 2000.000 0.000 0.843 3000.000 0.000 -0.791
50 833.34 1200.00 78 260 232 0.843 2000.000 0.000 0.843 3000.000 0.000 -0.791
51 850.00 1200.00 95 267 228 0.843 2000.000 0.000 0.843 3000.000 0.000 -0.791
52 866.67 1200.00 85 315 234 0.843 2000.000 0.000 0.843 3000.000 0.000 -0.791
53 883.34 1200.00 79 310 212 0.843 2000.000 0.000 0.843 3000.000 0.000 -0.791
54 900.00 1200.00 76 315 228 0.843 2000.000 0.000 0.843 3000.000 0.000 -0.791
55 916.67 1200.00 87 340 235 0.843 2000.000 0.000 0.843 3000.000 0.000 -0.791
56 933.34 1200.00 67 319 244 0.843 2000.000 0.000 0.843 3000.000 0.000 -0.791
57 950.00 1200.00 72 281 241 0.843 2000.000 0.000 0.843 3000.000 0.000 -0.791
58 966.67 1200.00 96 277 207 0.843 2000.000 0.000 0.843 3000.000 0.000 -0.791
59 983.34 1200.00 99 298 204 0.843 2000.000 0.000 0.843 3000.000 0.000 -0.791
60 1000.00 1200.00 99 261 191 0.843 2000.000 0.000 0.843 3000.000 0.000 -0.791
61 1016.67 1200.00 78 228 222 0.843 2000.000 0.000 0.843 3000.000 0.000 -0.791
62 1033.34 1200.00 77 212 227 0.843 2000.000 0.000 0.843 3000.000 0.000 -0.791
63 1050.00 1200.00 73 228 237 0.843 2000.000 0.000 0.843 3000.000 0.000 -0.791
64 1066.67 1200.00 81 247 205 0.843 2000.000 0.000 0.843 3000.000 0.000 -0.791
65 1083.34 1200.00 69 208 209 0.843 2000.000 0.000 0.843 3000.000 0.000 -0.791
66 1100.00 1200.00 80 239 212 0.843 2000.000 0.000 0.843 3000.000 0.000 -0.791
67 1116.67 1200.00 85 219 213 0.843 2000.000 0.000 0.843 3000.000 0.000 -0.791
68 1133.34 1200.00 97 207 235 0.843 2000.000 0.000 0.843 3000.000 0.000 -0.791
69 1150.00 1200.00 73 243 245 0.843 2000.000 0.000 0.843 3000.000 0.000 -0.791
70 1166.67 1200.00 74 230 236 0.843 2000.000 0.000 0.843 3000.000 0.000 -0.791
71 1183.34 1200.00 79 231 220 0.843 2000.000 0.000 0.843 3000.000 0.000 -0.791
72 1200.00 1200.00 90 264 227 0.843 2000.000 0.000 0.843 3000.000 0.000 -0.791
73 1216.67 1200.00 82 255 231 0.843 2000.000 0.000 0.843 3000.000 0.000 -0.791
74 1233.34 1200.00 84 229 221 0.843 2000.000 0.000 0.843 3000.000 0.000 -0.791
75 1250.00 1200.00 95 287 224 0.843 2000.000 0.000 0.843 3000.000 0.000 -0.791
76 1266.67 1200.00 94 271 234 0.843 2000.000 0.000 0.843 3000.000 0.000 -0.791
77 1283.34 1200.00 96 271 203 0.843 2000.000 0.000 0.843 3000.000 0.000 -0.791
78 1300.00 1200.00 92 262 199 0.843 2000.000 0.000 0.843 3000.000 0.000 -0.791
79 1316.67 1200.00 74 267 227 0.843 2000.000 0.000 0.843 3000.000 0.000 -0.791
80 1333.34 1200.00 84 258 207 0.843 2000.000 0.000 0.843 3000.000 0.000 -0.791
81 1350.00 1200.00 61 264 189 0.843 2000.000 0.000 0.843 3000.000 0.000 -0.791
82 1366.67 1200.00 80 248 212 0.843 2000.000 0.000 0.843 3000.000 0.000 -0.791
83 1383.34 1200.00 52 262 225 0.843 2000.000 0.000 0.843 3000.000 0.000 -0.791
84 1400.00 1200.00 76 246 211 0.843 2000.000 0.000 0.843 3000.000 0.000 -0.791
85 1416.67 1200.00 61 257 235 0.843 2000.000 0.000 0.843 3000.000 0.000 -0.791
86 1433.34 1200.00 67 251 251 0.843 2000.000 0.000 0.843 3000.000 0.000 -0.791
87 1450.00 1200.00 79 262 238 0.843 2000.000 0.000 0.843 3000.000 0.000 -0.791
88 1466.67 1200.00 74 266 220 0.843 2000.000 0.000 0.843 3000.000 0.000 -0.791
89 1483.34 1200.00 90 241 231 0.843 2000.000 0.000 0.843 3000.000 0.000 -0.791
90 1500.00 1200.00 88 276 240 0.843 2000.000 0.000 0.843 3000.000 0.000 -0.791
91 1516.67 1200.00 89 273 213 0.843 2000.000 0.000 0.843 3000.000 0.000 -0.791
92 1533.34 1200.00 86 258 225 0.843 2000.000 0.000 0.843 3000.000 0.000 -0.791
93 1550.00 1200.00 87 255 251 0.843 2000.000 0.000 0.843 3000.000 0.000 -0.791
94 1566.67 1200.00 95 262 217 0.843 2000.000 0.000 0.843 3000.000 0.000 -0.791
95 1583.34 1200.00 78 244 218 0.843 2000.000 0.000 0.843 3000.000 0.000 -0.791
96 1600.00 1200.00 55 246 252 0.843 2000.000 0.000 0.843 3000.000 0.000 -0.791
97 1616.67 1200.00 75 237 213 0.843 2000.000 0.000 0.843 3000.000 0.000 -0.791
98 1633.34 1200.00 90 212 173 0.843 2000.000 0.000 0.843 3000.000 0.000 -0.791
99 1650.00 1200.00 90 229 185 0.843 2000.000 0.000 0.843 3000.000 0.000 -0.791
100 1666.67 1200.00 86 223 163 0.843 2000.000 0.000 0.843 3000.000 0.000 -0.791
101 1683.34 1200.00 79 242 150 0.843 2000.000 0.000 0.843 3000.000 0.000 -0.791
102 1700.00 1200.00 80 227 171 0.843 2000.000 0.000 0.843 3000.000 0.000 -0.791
103 1716.67 1200.00 89 249 193 0.843 2000.000 0.000 0.843 3000.000 0.000 -0.791
104 1733.34 1200.00 69 260 192 0.843 2000.000 0.000 0.843 3000.000 0.000 -0.791
105 1750.00 1200.00 73 235 211 0.843 2000.000 0.000 0.843 3000.000 0.000 -0.791
106 1766.67 1200.00 88 236 201 0.843 2000.000 0.000 0.843 3000.000 0.000 -0.791
107 1783.34 1200.00 79 213 194 0.843 2000.000 0.000 0.843 3000.000 0.000 -0.791
108 1800.00 1200.00 84 232 229 0.843 2000.000 0.000 0.843 3000.000 0.000 -0.791
109 1816.67 1200.00 81 246 214 0.843 2000.000 0.000 0.843 3000.000 0.000 -0.791
110 1833.34 1200.00 66 263 242 0.843 2000.000 0.000 0.843 3000.000 0.000 -0.791
111 1850.00 1200.00 81 260 219 0.843 2000.000 0.000 0.843 3000.000 0.000 -0.791
112 1866.67 1200.00 84 317 248 0.843 2000.000 0.000 0.843 3000.000 0.000 -0.791
113 1883.34 1200.00 87 310 227 0.843 2000.000 0.000 0.843 3000.000 0.000 -0.791
114 1900.00 1200.00 84 320 219 0.843 2000.000 0.000 0.843 3000.000 0.000 -0.791
115 1916.67 1200.00 77 332 220 0.843 2000.000 0.000 0.843 3000.000 0.000 -0.791
116 1933.34 1200.00 93 350 202 0.843 2000.000 0.000 0.843 3000.000 0.000 -0.791
117 1950.00 1200.00 86 337 219 0.843 2000.000 0.000 0.843 3000.000 0.000 -0.791
118 1966.67 1200.00 81 258 232 0.843 2000.000 0.000 0.843 3000.000 0.000 -0.791
119 1983.34 1200.00 92 278 196 0.843 2000.000 0.000 0.843 3000.000 0.000 -0.791
