# BinNR microsec tot-time (s)  O-Beam H-beam AUX Ampl1(V) f1(Hz) phase1(deg) Ampl1(V) f1(Hz) phase1(deg) chi(pos)
0 0.00 1200.00 58 313 202 0.843 2000.000 0.000 0.843 3000.000 0.000 1.066
1 16.67 1200.00 55 300 176 0.843 2000.000 0.000 0.843 3000.000 0.000 1.066
2 33.33 1200.00 58 300 157 0.843 2000.000 0.000 0.843 3000.000 0.000 1.066
3 50.00 1200.00 68 237 168 0.843 2000.000 0.000 0.843 3000.000 0.000 1.066
4 66.67 1200.00 66 253 148 0.843 2000.000 0.000 0.843 3000.000 0.000 1.066
5 83.33 1200.00 69 259 183 0.843 2000.000 0.000 0.843 3000.000 0.000 1.066
6 100.00 1200.00 76 263 144 0.843 2000.000 0.000 0.843 3000.000 0.000 1.066
7 116.67 1200.00 76 242 190 0.843 2000.000 0.000 0.843 3000.000 0.000 1.066
8 133.33 1200.00 102 282 183 0.843 2000.000 0.000 0.843 3000.000 0.000 1.066
9 150.00 1200.00 71 253 197 0.843 2000.000 0.000 0.843 3000.000 0.000 1.066
10 166.67 1200.00 94 245 175 0.843 2000.000 0.000 0.843 3000.000 0.000 1.066
11 183.33 1200.00 70 300 178 0.843 2000.000 0.000 0.843 3000.000 0.000 1.066
12 200.00 1200.00 82 271 189 0.843 2000.000 0.000 0.843 3000.000 0.000 1.066
13 216.67 1200.00 74 331 191 0.843 2000.000 0.000 0.843 3000.000 0.000 1.066
14 233.33 1200.00 78 280 193 0.843 2000.000 0.000 0.843 3000.000 0.000 1.066
15 250.00 1200.00 82 335 163 0.843 2000.000 0.000 0.843 3000.000 0.000 1.066
16 266.67 1200.00 91 335 151 0.843 2000.000 0.000 0.843 3000.000 0.000 1.066
17 283.33 1200.00 82 322 160 0.843 2000.000 0.000 0.843 3000.000 0.000 1.066
18 300.00 1200.00 71 334 181 0.843 2000.000 0.000 0.843 3000.000 0.000 1.066
19 316.67 1200.00 50 295 142 0.843 2000.000 0.000 0.843 3000.000 0.000 1.066
20 333.33 1200.00 57 315 158 0.843 2000.000 0.000 0.843 3000.000 0.000 1.066
21 350.00 1200.00 49 283 161 0.843 2000.000 0.000 0.843 3000.000 0.000 1.066
22 366.67 1200.00 43 309 170 0.843 2000.000 0.000 0.843 3000.000 0.000 1.066
23 383.33 1200.00 66 319 159 0.843 2000.000 0.000 0.843 3000.000 0.000 1.066
24 400.00 1200.00 44 282 202 0.843 2000.000 0.000 0.843 3000.000 0.000 1.066
25 416.67 1200.00 43 315 181 0.843 2000.000 0.000 0.843 3000.000 0.000 1.066
26 433.33 1200.00 52 316 204 0.843 2000.000 0.000 0.843 3000.000 0.000 1.066
27 450.00 1200.00 51 343 217 0.843 2000.000 0.000 0.843 3000.000 0.000 1.066
28 466.67 1200.00 49 327 207 0.843 2000.000 0.000 0.843 3000.000 0.000 1.066
29 483.33 1200.00 69 332 230 0.843 2000.000 0.000 0.843 3000.000 0.000 1.066
30 500.00 1200.00 71 341 228 0.843 2000.000 0.000 0.843 3000.000 0.000 1.066
31 516.67 1200.00 91 340 219 0.843 2000.000 0.000 0.843 3000.000 0.000 1.066
32 533.33 1200.00 68 369 228 0.843 2000.000 0.000 0.843 3000.000 0.000 1.066
33 550.00 1200.00 86 354 234 0.843 2000.000 0.000 0.843 3000.000 0.000 1.066
34 566.67 1200.00 78 298 197 0.843 2000.000 0.000 0.843 3000.000 0.000 1.066
35 583.33 1200.00 71 318 190 0.843 2000.000 0.000 0.843 3000.000 0.000 1.066
36 600.00 1200.00 87 271 174 0.843 2000.000 0.000 0.843 3000.000 0.000 1.066
37 616.67 1200.00 67 294 152 0.843 2000.000 0.000 0.843 3000.000 0.000 1.066
38 633.33 1200.00 75 302 136 0.843 2000.000 0.000 0.843 3000.000 0.000 1.066
39 650.00 1200.00 63 231 122 0.843 2000.000 0.000 0.843 3000.000 0.000 1.066
40 666.67 1200.00 81 252 122 0.843 2000.000 0.000 0.843 3000.000 0.000 1.066
41 683.33 1200.00 70 262 119 0.843 2000.000 0.000 0.843 3000.000 0.000 1.066
42 700.00 1200.00 65 224 110 0.843 2000.000 0.000 0.843 3000.000 0.000 1.066
43 716.67 1200.00 64 220 118 0.843 2000.000 0.000 0.843 3000.000 0.000 1.066
44 733.33 1200.00 71 226 124 0.843 2000.000 0.000 0.843 3000.000 0.000 1.066
45 750.00 1200.00 68 248 161 0.843 2000.000 0.000 0.843 3000.000 0.000 1.066
46 766.67 1200.00 64 256 136 0.843 2000.000 0.000 0.843 3000.000 0.000 1.066
47 783.33 1200.00 67 271 208 0.843 2000.000 0.000 0.843 3000.000 0.000 1.066
48 800.00 1200.00 63 315 202 0.843 2000.000 0.000 0.843 3000.000 0.000 1.066
49 816.67 1200.00 66 297 213 0.843 2000.000 0.000 0.843 3000.000 0.000 1.066
50 833.34 1200.00 62 327 211 0.843 2000.000 0.000 0.843 3000.000 0.000 1.066
51 850.00 1200.00 69 333 220 0.843 2000.000 0.000 0.843 3000.000 0.000 1.066
52 866.67 1200.00 69 413 225 0.843 2000.000 0.000 0.843 3000.000 0.000 1.066
53 883.34 1200.00 68 393 221 0.843 2000.000 0.000 0.843 3000.000 0.000 1.066
54 900.00 1200.00 86 440 222 0.843 2000.000 0.000 0.843 3000.000 0.000 1.066
55 916.67 1200.00 49 411 241 0.843 2000.000 0.000 0.843 3000.000 0.000 1.066
56 933.34 1200.00 67 380 228 0.843 2000.000 0.000 0.843 3000.000 0.000 1.066
57 950.00 1200.00 72 388 194 0.843 2000.000 0.000 0.843 3000.000 0.000 1.066
58 966.67 1200.00 65 420 174 0.843 2000.000 0.000 0.843 3000.000 0.000 1.066
59 983.34 1200.00 75 359 186 0.843 2000.000 0.000 0.843 3000.000 0.000 1.066
60 1000.00 1200.00 57 306 185 0.843 2000.000 0.000 0.843 3000.000 0.000 1.066
61 1016.67 1200.00 62 323 177 0.843 2000.000 0.000 0.843 3000.000 0.000 1.066
62 1033.34 1200.00 48 275 172 0.843 2000.000 0.000 0.843 3000.000 0.000 1.066
63 1050.00 1200.00 47 246 146 0.843 2000.000 0.000 0.843 3000.000 0.000 1.066
64 1066.67 1200.00 70 250 173 0.843 2000.000 0.000 0.843 3000.000 0.000 1.066
65 1083.34 1200.00 69 214 182 0.843 2000.000 0.000 0.843 3000.000 0.000 1.066
66 1100.00 1200.00 68 233 185 0.843 2000.000 0.000 0.843 3000.000 0.000 1.066
67 1116.67 1200.00 65 255 198 0.843 2000.000 0.000 0.843 3000.000 0.000 1.066
68 1133.34 1200.00 79 269 194 0.843 2000.000 0.000 0.843 3000.000 0.000 1.066
69 1150.00 1200.00 78 221 190 0.843 2000.000 0.000 0.843 3000.000 0.000 1.066
70 1166.67 1200.00 88 258 200 0.843 2000.000 0.000 0.843 3000.000 0.000 1.066
71 1183.34 1200.00 87 309 178 0.843 2000.000 0.000 0.843 3000.000 0.000 1.066
72 1200.00 1200.00 56 284 164 0.843 2000.000 0.000 0.843 3000.000 0.000 1.066
73 1216.67 1200.00 75 306 180 0.843 2000.000 0.000 0.843 3000.000 0.000 1.066
74 1233.34 1200.00 80 318 190 0.843 2000.000 0.000 0.843 3000.000 0.000 1.066
75 1250.00 1200.00 87 296 158 0.843 2000.000 0.000 0.843 3000.000 0.000 1.066
76 1266.67 1200.00 79 336 144 0.843 2000.000 0.000 0.843 3000.000 0.000 1.066
77 1283.34 1200.00 74 328 137 0.843 2000.000 0.000 0.843 3000.000 0.000 1.066
78 1300.00 1200.00 60 308 158 0.843 2000.000 0.000 0.843 3000.000 0.000 1.066
79 1316.67 1200.00 61 337 142 0.843 2000.000 0.000 0.843 3000.000 0.000 1.066
80 1333.34 1200.00 66 252 160 0.843 2000.000 0.000 0.843 3000.000 0.000 1.066
81 1350.00 1200.00 51 299 155 0.843 2000.000 0.000 0.843 3000.000 0.000 1.066
82 1366.67 1200.00 54 298 157 0.843 2000.000 0.000 0.843 3000.000 0.000 1.066
83 1383.34 1200.00 38 299 167 0.843 2000.000 0.000 0.843 3000.000 0.000 1.066
84 1400.00 1200.00 54 315 204 0.843 2000.000 0.000 0.843 3000.000 0.000 1.066
85 1416.67 1200.00 58 279 210 0.843 2000.000 0.000 0.843 3000.000 0.000 1.066
86 1433.34 1200.00 48 308 229 0.843 2000.000 0.000 0.843 3000.000 0.000 1.066
87 1450.00 1200.00 55 315 215 0.843 2000.000 0.000 0.843 3000.000 0.000 1.066
88 1466.67 1200.00 63 336 203 0.843 2000.000 0.000 0.843 3000.000 0.000 1.066
89 1483.34 1200.00 63 355 239 0.843 2000.000 0.000 0.843 3000.000 0.000 1.066
90 1500.00 1200.00 67 324 228 0.843 2000.000 0.000 0.843 3000.000 0.000 1.066
91 1516.67 1200.00 71 346 217 0.843 2000.000 0.000 0.843 3000.000 0.000 1.066
92 1533.34 1200.00 73 361 219 0.843 2000.000 0.000 0.843 3000.000 0.000 1.066
93 1550.00 1200.00 61 334 244 0.843 2000.000 0.000 0.843 3000.000 0.000 1.066
94 1566.67 1200.00 85 325 220 0.843 2000.000 0.000 0.843 3000.000 0.000 1.066
95 1583.34 1200.00 76 307 191 0.843 2000.000 0.000 0.843 3000.000 0.000 1.066
96 1600.00 1200.00 76 304 188 0.843 2000.000 0.000 0.843 3000.000 0.000 1.066
97 1616.67 1200.00 82 325 162 0.843 2000.000 0.000 0.843 3000.000 0.000 1.066
98 1633.34 1200.00 86 273 144 0.843 2000.000 0.000 0.843 3000.000 0.000 1.066
99 1650.00 1200.00 95 230 113 0.843 2000.000 0.000 0.843 3000.000 0.000 1.066
100 1666.67 1200.00 81 240 123 0.843 2000.000 0.000 0.843 3000.000 0.000 1.066
101 1683.34 1200.00 65 232 104 0.843 2000.000 0.000 0.843 3000.000 0.000 1.066
102 1700.00 1200.00 62 235 119 0.843 2000.000 0.000 0.843 3000.000 0.000 1.066
103 1716.67 1200.00 70 244 114 0.843 2000.000 0.000 0.843 3000.000 0.000 1.066
104 1733.34 1200.00 75 283 126 0.843 2000.000 0.000 0.843 3000.000 0.000 1.066
105 1750.00 1200.00 62 236 154 0.843 2000.000 0.000 0.843 3000.000 0.000 1.066
106 1766.67 1200.00 61 263 167 0.843 2000.000 0.000 0.843 3000.000 0.000 1.066
107 1783.34 1200.00 59 268 154 0.843 2000.000 0.000 0.843 3000.000 0.000 1.066
108 1800.00 1200.00 62 266 195 0.843 2000.000 0.000 0.843 3000.000 0.000 1.066
109 1816.67 1200.00 55 312 226 0.843 2000.000 0.000 0.843 3000.000 0.000 1.066
110 1833.34 1200.00 67 343 220 0.843 2000.000 0.000 0.843 3000.000 0.000 1.066
111 1850.00 1200.00 68 351 228 0.843 2000.000 0.000 0.843 3000.000 0.000 1.066
112 1866.67 1200.00 67 378 196 0.843 2000.000 0.000 0.843 3000.000 0.000 1.066
113 1883.34 1200.00 84 393 227 0.843 2000.000 0.000 0.843 3000.000 0.000 1.066
114 1900.00 1200.00 72 431 196 0.843 2000.000 0.000 0.843 3000.000 0.000 1.066
115 1916.67 1200.00 59 424 218 0.843 2000.000 0.000 0.843 3000.000 0.000 1.066
116 1933.34 1200.00 74 429 214 0.843 2000.000 0.000 0.843 3000.000 0.000 1.066
117 1950.00 1200.00 69 378 203 0.843 2000.000 0.000 0.843 3000.000 0.000 1.066
118 1966.67 1200.00 81 340 216 0.843 2000.000 0.000 0.843 3000.000 0.000 1.066
119 1983.34 1200.00 61 298 178 0.843 2000.000 0.000 0.843 3000.000 0.000 1.066
