# BinNR microsec tot-time (s)  O-Beam H-beam AUX Ampl1(V) f1(Hz) phase1(deg) Ampl1(V) f1(Hz) phase1(deg) chi(pos)
0 0.00 1200.00 29 520 35 0.843 2000.000 0.000 0.843 3000.000 0.000 0.220
1 16.67 1200.00 28 512 51 0.843 2000.000 0.000 0.843 3000.000 0.000 0.220
2 33.33 1200.00 23 487 58 0.843 2000.000 0.000 0.843 3000.000 0.000 0.220
3 50.00 1200.00 27 563 61 0.843 2000.000 0.000 0.843 3000.000 0.000 0.220
4 66.67 1200.00 26 532 50 0.843 2000.000 0.000 0.843 3000.000 0.000 0.220
5 83.33 1200.00 25 522 46 0.843 2000.000 0.000 0.843 3000.000 0.000 0.220
6 100.00 1200.00 26 551 55 0.843 2000.000 0.000 0.843 3000.000 0.000 0.220
7 116.67 1200.00 21 515 44 0.843 2000.000 0.000 0.843 3000.000 0.000 0.220
8 133.33 1200.00 15 534 53 0.843 2000.000 0.000 0.843 3000.000 0.000 0.220
9 150.00 1200.00 16 510 47 0.843 2000.000 0.000 0.843 3000.000 0.000 0.220
10 166.67 1200.00 21 541 43 0.843 2000.000 0.000 0.843 3000.000 0.000 0.220
11 183.33 1200.00 22 556 35 0.843 2000.000 0.000 0.843 3000.000 0.000 0.220
12 200.00 1200.00 13 510 47 0.843 2000.000 0.000 0.843 3000.000 0.000 0.220
13 216.67 1200.00 19 510 52 0.843 2000.000 0.000 0.843 3000.000 0.000 0.220
14 233.33 1200.00 24 534 50 0.843 2000.000 0.000 0.843 3000.000 0.000 0.220
15 250.00 1200.00 19 503 57 0.843 2000.000 0.000 0.843 3000.000 0.000 0.220
16 266.67 1200.00 14 540 66 0.843 2000.000 0.000 0.843 3000.000 0.000 0.220
17 283.33 1200.00 17 509 64 0.843 2000.000 0.000 0.843 3000.000 0.000 0.220
18 300.00 1200.00 18 505 53 0.843 2000.000 0.000 0.843 3000.000 0.000 0.220
19 316.67 1200.00 24 513 57 0.843 2000.000 0.000 0.843 3000.000 0.000 0.220
20 333.33 1200.00 19 518 62 0.843 2000.000 0.000 0.843 3000.000 0.000 0.220
21 350.00 1200.00 30 534 51 0.843 2000.000 0.000 0.843 3000.000 0.000 0.220
22 366.67 1200.00 38 519 55 0.843 2000.000 0.000 0.843 3000.000 0.000 0.220
23 383.33 1200.00 27 461 61 0.843 2000.000 0.000 0.843 3000.000 0.000 0.220
24 400.00 1200.00 34 511 40 0.843 2000.000 0.000 0.843 3000.000 0.000 0.220
25 416.67 1200.00 30 512 30 0.843 2000.000 0.000 0.843 3000.000 0.000 0.220
26 433.33 1200.00 41 508 38 0.843 2000.000 0.000 0.843 3000.000 0.000 0.220
27 450.00 1200.00 28 478 31 0.843 2000.000 0.000 0.843 3000.000 0.000 0.220
28 466.67 1200.00 29 513 44 0.843 2000.000 0.000 0.843 3000.000 0.000 0.220
29 483.33 1200.00 20 506 38 0.843 2000.000 0.000 0.843 3000.000 0.000 0.220
30 500.00 1200.00 21 502 18 0.843 2000.000 0.000 0.843 3000.000 0.000 0.220
31 516.67 1200.00 19 497 31 0.843 2000.000 0.000 0.843 3000.000 0.000 0.220
32 533.33 1200.00 21 470 31 0.843 2000.000 0.000 0.843 3000.000 0.000 0.220
33 550.00 1200.00 20 472 33 0.843 2000.000 0.000 0.843 3000.000 0.000 0.220
34 566.67 1200.00 20 497 41 0.843 2000.000 0.000 0.843 3000.000 0.000 0.220
35 583.33 1200.00 24 502 41 0.843 2000.000 0.000 0.843 3000.000 0.000 0.220
36 600.00 1200.00 17 537 63 0.843 2000.000 0.000 0.843 3000.000 0.000 0.220
37 616.67 1200.00 21 514 71 0.843 2000.000 0.000 0.843 3000.000 0.000 0.220
38 633.33 1200.00 23 501 71 0.843 2000.000 0.000 0.843 3000.000 0.000 0.220
39 650.00 1200.00 18 520 79 0.843 2000.000 0.000 0.843 3000.000 0.000 0.220
40 666.67 1200.00 14 508 100 0.843 2000.000 0.000 0.843 3000.000 0.000 0.220
41 683.33 1200.00 20 507 86 0.843 2000.000 0.000 0.843 3000.000 0.000 0.220
42 700.00 1200.00 21 531 96 0.843 2000.000 0.000 0.843 3000.000 0.000 0.220
43 716.67 1200.00 26 540 109 0.843 2000.000 0.000 0.843 3000.000 0.000 0.220
44 733.33 1200.00 29 533 102 0.843 2000.000 0.000 0.843 3000.000 0.000 0.220
45 750.00 1200.00 28 522 77 0.843 2000.000 0.000 0.843 3000.000 0.000 0.220
46 766.67 1200.00 27 493 62 0.843 2000.000 0.000 0.843 3000.000 0.000 0.220
47 783.33 1200.00 30 517 52 0.843 2000.000 0.000 0.843 3000.000 0.000 0.220
48 800.00 1200.00 21 551 40 0.843 2000.000 0.000 0.843 3000.000 0.000 0.220
49 816.67 1200.00 31 502 31 0.843 2000.000 0.000 0.843 3000.000 0.000 0.220
50 833.34 1200.00 19 518 40 0.843 2000.000 0.000 0.843 3000.000 0.000 0.220
51 850.00 1200.00 18 474 29 0.843 2000.000 0.000 0.843 3000.000 0.000 0.220
52 866.67 1200.00 19 429 38 0.843 2000.000 0.000 0.843 3000.000 0.000 0.220
53 883.34 1200.00 28 433 41 0.843 2000.000 0.000 0.843 3000.000 0.000 0.220
54 900.00 1200.00 23 442 27 0.843 2000.000 0.000 0.843 3000.000 0.000 0.220
55 916.67 1200.00 27 428 48 0.843 2000.000 0.000 0.843 3000.000 0.000 0.220
56 933.34 1200.00 17 455 38 0.843 2000.000 0.000 0.843 3000.000 0.000 0.220
57 950.00 1200.00 20 449 34 0.843 2000.000 0.000 0.843 3000.000 0.000 0.220
58 966.67 1200.00 30 462 38 0.843 2000.000 0.000 0.843 3000.000 0.000 0.220
59 983.34 1200.00 30 503 41 0.843 2000.000 0.000 0.843 3000.000 0.000 0.220
60 1000.00 1200.00 32 515 45 0.843 2000.000 0.000 0.843 3000.000 0.000 0.220
61 1016.67 1200.00 30 501 59 0.843 2000.000 0.000 0.843 3000.000 0.000 0.220
62 1033.34 1200.00 26 521 43 0.843 2000.000 0.000 0.843 3000.000 0.000 0.220
63 1050.00 1200.00 24 521 43 0.843 2000.000 0.000 0.843 3000.000 0.000 0.220
64 1066.67 1200.00 22 536 61 0.843 2000.000 0.000 0.843 3000.000 0.000 0.220
65 1083.34 1200.00 22 556 52 0.843 2000.000 0.000 0.843 3000.000 0.000 0.220
66 1100.00 1200.00 33 541 62 0.843 2000.000 0.000 0.843 3000.000 0.000 0.220
67 1116.67 1200.00 21 532 41 0.843 2000.000 0.000 0.843 3000.000 0.000 0.220
68 1133.34 1200.00 20 553 48 0.843 2000.000 0.000 0.843 3000.000 0.000 0.220
69 1150.00 1200.00 20 505 40 0.843 2000.000 0.000 0.843 3000.000 0.000 0.220
70 1166.67 1200.00 21 522 41 0.843 2000.000 0.000 0.843 3000.000 0.000 0.220
71 1183.34 1200.00 17 544 52 0.843 2000.000 0.000 0.843 3000.000 0.000 0.220
72 1200.00 1200.00 16 570 53 0.843 2000.000 0.000 0.843 3000.000 0.000 0.220
73 1216.67 1200.00 22 510 44 0.843 2000.000 0.000 0.843 3000.000 0.000 0.220
74 1233.34 1200.00 13 538 42 0.843 2000.000 0.000 0.843 3000.000 0.000 0.220
75 1250.00 1200.00 27 515 60 0.843 2000.000 0.000 0.843 3000.000 0.000 0.220
76 1266.67 1200.00 22 514 58 0.843 2000.000 0.000 0.843 3000.000 0.000 0.220
77 1283.34 1200.00 18 468 59 0.843 2000.000 0.000 0.843 3000.000 0.000 0.220
78 1300.00 1200.00 20 486 80 0.843 2000.000 0.000 0.843 3000.000 0.000 0.220
79 1316.67 1200.00 26 499 73 0.843 2000.000 0.000 0.843 3000.000 0.000 0.220
80 1333.34 1200.00 24 510 65 0.843 2000.000 0.000 0.843 3000.000 0.000 0.220
81 1350.00 1200.00 33 524 61 0.843 2000.000 0.000 0.843 3000.000 0.000 0.220
82 1366.67 1200.00 49 519 45 0.843 2000.000 0.000 0.843 3000.000 0.000 0.220
83 1383.34 1200.00 34 525 53 0.843 2000.000 0.000 0.843 3000.000 0.000 0.220
84 1400.00 1200.00 42 528 41 0.843 2000.000 0.000 0.843 3000.000 0.000 0.220
85 1416.67 1200.00 41 540 47 0.843 2000.000 0.000 0.843 3000.000 0.000 0.220
86 1433.34 1200.00 46 517 40 0.843 2000.000 0.000 0.843 3000.000 0.000 0.220
87 1450.00 1200.00 38 513 42 0.843 2000.000 0.000 0.843 3000.000 0.000 0.220
88 1466.67 1200.00 35 542 34 0.843 2000.000 0.000 0.843 3000.000 0.000 0.220
89 1483.34 1200.00 30 480 37 0.843 2000.000 0.000 0.843 3000.000 0.000 0.220
90 1500.00 1200.00 32 511 38 0.843 2000.000 0.000 0.843 3000.000 0.000 0.220
91 1516.67 1200.00 19 508 40 0.843 2000.000 0.000 0.843 3000.000 0.000 0.220
92 1533.34 1200.00 15 503 32 0.843 2000.000 0.000 0.843 3000.000 0.000 0.220
93 1550.00 1200.00 21 474 37 0.843 2000.000 0.000 0.843 3000.000 0.000 0.220
94 1566.67 1200.00 28 479 33 0.843 2000.000 0.000 0.843 3000.000 0.000 0.220
95 1583.34 1200.00 23 478 56 0.843 2000.000 0.000 0.843 3000.000 0.000 0.220
96 1600.00 1200.00 19 531 40 0.843 2000.000 0.000 0.843 3000.000 0.000 0.220
97 1616.67 1200.00 24 534 64 0.843 2000.000 0.000 0.843 3000.000 0.000 0.220
98 1633.34 1200.00 13 582 80 0.843 2000.000 0.000 0.843 3000.000 0.000 0.220
99 1650.00 1200.00 20 471 87 0.843 2000.000 0.000 0.843 3000.000 0.000 0.220
100 1666.67 1200.00 22 539 93 0.843 2000.000 0.000 0.843 3000.000 0.000 0.220
101 1683.34 1200.00 27 529 82 0.843 2000.000 0.000 0.843 3000.000 0.000 0.220
102 1700.00 1200.00 22 546 97 0.843 2000.000 0.000 0.843 3000.000 0.000 0.220
103 1716.67 1200.00 22 547 115 0.843 2000.000 0.000 0.843 3000.000 0.000 0.220
104 1733.34 1200.00 30 583 95 0.843 2000.000 0.000 0.843 3000.000 0.000 0.220
105 1750.00 1200.00 23 525 75 0.843 2000.000 0.000 0.843 3000.000 0.000 0.220
106 1766.67 1200.00 34 511 74 0.843 2000.000 0.000 0.843 3000.000 0.000 0.220
107 1783.34 1200.00 28 496 50 0.843 2000.000 0.000 0.843 3000.000 0.000 0.220
108 1800.00 1200.00 31 535 49 0.843 2000.000 0.000 0.843 3000.000 0.000 0.220
109 1816.67 1200.00 35 542 29 0.843 2000.000 0.000 0.843 3000.000 0.000 0.220
110 1833.34 1200.00 16 471 35 0.843 2000.000 0.000 0.843 3000.000 0.000 0.220
111 1850.00 1200.00 28 482 31 0.843 2000.000 0.000 0.843 3000.000 0.000 0.220
112 1866.67 1200.00 21 456 35 0.843 2000.000 0.000 0.843 3000.000 0.000 0.220
113 1883.34 1200.00 25 457 38 0.843 2000.000 0.000 0.843 3000.000 0.000 0.220
114 1900.00 1200.00 16 464 38 0.843 2000.000 0.000 0.843 3000.000 0.000 0.220
115 1916.67 1200.00 20 401 42 0.843 2000.000 0.000 0.843 3000.000 0.000 0.220
116 1933.34 1200.00 22 410 44 0.843 2000.000 0.000 0.843 3000.000 0.000 0.220
117 1950.00 1200.00 28 464 37 0.843 2000.000 0.000 0.843 3000.000 0.000 0.220
118 1966.67 1200.00 29 457 43 0.843 2000.000 0.000 0.843 3000.000 0.000 0.220
119 1983.34 1200.00 31 427 45 0.843 2000.000 0.000 0.843 3000.000 0.000 0.220
