# BinNR microsec tot-time (s)  O-Beam H-beam AUX Ampl(V) f(Hz) phase(deg) chi(pos)
0 0.00 900.00 140 597 2 0.000 3.343 2000.000 0.341
1 25.00 900.00 143 489 3 0.000 3.343 2000.000 0.341
2 50.00 900.00 132 359 2 0.000 3.343 2000.000 0.341
3 75.00 900.00 123 300 2 0.000 3.343 2000.000 0.341
4 100.00 900.00 166 338 1 0.000 3.343 2000.000 0.341
5 125.00 900.00 265 495 4 0.000 3.343 2000.000 0.341
6 150.00 900.00 370 533 2 0.000 3.343 2000.000 0.341
7 175.00 900.00 514 561 2 0.000 3.343 2000.000 0.341
8 200.00 900.00 483 606 1 0.000 3.343 2000.000 0.341
9 225.00 900.00 416 493 2 0.000 3.343 2000.000 0.341
10 250.00 900.00 338 457 1 0.000 3.343 2000.000 0.341
11 275.00 900.00 236 357 5 0.000 3.343 2000.000 0.341
12 300.00 900.00 240 322 1 0.000 3.343 2000.000 0.341
13 325.00 900.00 216 384 2 0.000 3.343 2000.000 0.341
14 350.00 900.00 290 494 3 0.000 3.343 2000.000 0.341
15 375.00 900.00 373 633 2 0.000 3.343 2000.000 0.341
16 400.00 900.00 470 655 2 0.000 3.343 2000.000 0.341
17 425.00 900.00 503 684 2 0.000 3.343 2000.000 0.341
18 450.00 900.00 388 707 6 0.000 3.343 2000.000 0.341
19 475.00 900.00 306 688 1 0.000 3.343 2000.000 0.341
20 500.00 900.00 137 564 1 0.000 3.343 2000.000 0.341
21 525.00 900.00 122 510 2 0.000 3.343 2000.000 0.341
22 550.00 900.00 145 354 1 0.000 3.343 2000.000 0.341
23 575.00 900.00 135 287 2 0.000 3.343 2000.000 0.341
24 600.00 900.00 168 356 3 0.000 3.343 2000.000 0.341
25 625.00 900.00 233 458 2 0.000 3.343 2000.000 0.341
26 650.00 900.00 344 546 2 0.000 3.343 2000.000 0.341
27 675.00 900.00 490 607 6 0.000 3.343 2000.000 0.341
28 700.00 900.00 509 573 2 0.000 3.343 2000.000 0.341
29 725.00 900.00 444 591 0 0.000 3.343 2000.000 0.341
30 750.00 900.00 340 462 1 0.000 3.343 2000.000 0.341
31 775.00 900.00 272 366 3 0.000 3.343 2000.000 0.341
32 800.00 900.00 231 273 3 0.000 3.343 2000.000 0.341
33 825.00 900.00 238 380 0 0.000 3.343 2000.000 0.341
34 850.00 900.00 309 477 4 0.000 3.343 2000.000 0.341
35 875.00 900.00 398 614 0 0.000 3.343 2000.000 0.341
36 900.00 900.00 444 615 1 0.000 3.343 2000.000 0.341
37 925.00 900.00 533 719 3 0.000 3.343 2000.000 0.341
38 950.00 900.00 422 711 2 0.000 3.343 2000.000 0.341
39 975.00 900.00 286 699 2 0.000 3.343 2000.000 0.341
