# BinNR microsec tot-time (s)  O-Beam H-beam AUX Ampl(V) f(Hz) phase(deg) chi(pos)
0 0.00 1200.00 140 999 2 5.313 2000.000 0.000 1.505
1 25.00 1200.00 136 844 6 5.313 2000.000 0.000 1.505
2 50.00 1200.00 140 749 5 5.313 2000.000 0.000 1.505
3 75.00 1200.00 115 564 3 5.313 2000.000 0.000 1.505
4 100.00 1200.00 128 520 6 5.313 2000.000 0.000 1.505
5 125.00 1200.00 207 622 7 5.313 2000.000 0.000 1.505
6 150.00 1200.00 353 694 3 5.313 2000.000 0.000 1.505
7 175.00 1200.00 477 801 3 5.313 2000.000 0.000 1.505
8 200.00 1200.00 606 780 5 5.313 2000.000 0.000 1.505
9 225.00 1200.00 583 678 6 5.313 2000.000 0.000 1.505
10 250.00 1200.00 524 644 4 5.313 2000.000 0.000 1.505
11 275.00 1200.00 378 525 0 5.313 2000.000 0.000 1.505
12 300.00 1200.00 385 574 5 5.313 2000.000 0.000 1.505
13 325.00 1200.00 423 730 5 5.313 2000.000 0.000 1.505
14 350.00 1200.00 497 861 5 5.313 2000.000 0.000 1.505
15 375.00 1200.00 565 1004 1 5.313 2000.000 0.000 1.505
16 400.00 1200.00 627 1044 3 5.313 2000.000 0.000 1.505
17 425.00 1200.00 524 1019 2 5.313 2000.000 0.000 1.505
18 450.00 1200.00 391 1039 6 5.313 2000.000 0.000 1.505
19 475.00 1200.00 213 1034 6 5.313 2000.000 0.000 1.505
20 500.00 1200.00 128 1037 4 5.313 2000.000 0.000 1.505
21 525.00 1200.00 130 879 3 5.313 2000.000 0.000 1.505
22 550.00 1200.00 126 678 2 5.313 2000.000 0.000 1.505
23 575.00 1200.00 112 590 4 5.313 2000.000 0.000 1.505
24 600.00 1200.00 138 583 2 5.313 2000.000 0.000 1.505
25 625.00 1200.00 209 660 3 5.313 2000.000 0.000 1.505
26 650.00 1200.00 358 691 3 5.313 2000.000 0.000 1.505
27 675.00 1200.00 553 807 4 5.313 2000.000 0.000 1.505
28 700.00 1200.00 620 801 6 5.313 2000.000 0.000 1.505
29 725.00 1200.00 574 725 3 5.313 2000.000 0.000 1.505
30 750.00 1200.00 510 628 2 5.313 2000.000 0.000 1.505
31 775.00 1200.00 363 574 4 5.313 2000.000 0.000 1.505
32 800.00 1200.00 405 604 2 5.313 2000.000 0.000 1.505
33 825.00 1200.00 411 686 1 5.313 2000.000 0.000 1.505
34 850.00 1200.00 482 883 4 5.313 2000.000 0.000 1.505
35 875.00 1200.00 548 978 2 5.313 2000.000 0.000 1.505
36 900.00 1200.00 630 1052 5 5.313 2000.000 0.000 1.505
37 925.00 1200.00 527 1039 1 5.313 2000.000 0.000 1.505
38 950.00 1200.00 425 1035 2 5.313 2000.000 0.000 1.505
39 975.00 1200.00 229 1053 3 5.313 2000.000 0.000 1.505
