# BinNR microsec tot-time (s)  O-Beam H-beam AUX Ampl(V) f(Hz) phase(deg) chi(pos)
0 0.00 1200.00 544 552 1 5.313 2000.000 0.000 0.352
1 25.00 1200.00 593 650 1 5.313 2000.000 0.000 0.352
2 50.00 1200.00 538 809 4 5.313 2000.000 0.000 0.352
3 75.00 1200.00 529 960 0 5.313 2000.000 0.000 0.352
4 100.00 1200.00 549 942 2 5.313 2000.000 0.000 0.352
5 125.00 1200.00 512 901 2 5.313 2000.000 0.000 0.352
6 150.00 1200.00 399 883 4 5.313 2000.000 0.000 0.352
7 175.00 1200.00 262 834 1 5.313 2000.000 0.000 0.352
8 200.00 1200.00 118 835 4 5.313 2000.000 0.000 0.352
9 225.00 1200.00 134 819 8 5.313 2000.000 0.000 0.352
10 250.00 1200.00 187 976 4 5.313 2000.000 0.000 0.352
11 275.00 1200.00 248 930 3 5.313 2000.000 0.000 0.352
12 300.00 1200.00 269 924 3 5.313 2000.000 0.000 0.352
13 325.00 1200.00 261 813 2 5.313 2000.000 0.000 0.352
14 350.00 1200.00 201 606 2 5.313 2000.000 0.000 0.352
15 375.00 1200.00 125 522 2 5.313 2000.000 0.000 0.352
16 400.00 1200.00 148 533 3 5.313 2000.000 0.000 0.352
17 425.00 1200.00 226 543 0 5.313 2000.000 0.000 0.352
18 450.00 1200.00 390 502 1 5.313 2000.000 0.000 0.352
19 475.00 1200.00 504 532 3 5.313 2000.000 0.000 0.352
20 500.00 1200.00 562 569 2 5.313 2000.000 0.000 0.352
21 525.00 1200.00 573 648 4 5.313 2000.000 0.000 0.352
22 550.00 1200.00 554 761 1 5.313 2000.000 0.000 0.352
23 575.00 1200.00 558 884 1 5.313 2000.000 0.000 0.352
24 600.00 1200.00 598 985 6 5.313 2000.000 0.000 0.352
25 625.00 1200.00 514 874 2 5.313 2000.000 0.000 0.352
26 650.00 1200.00 389 906 4 5.313 2000.000 0.000 0.352
27 675.00 1200.00 259 827 2 5.313 2000.000 0.000 0.352
28 700.00 1200.00 128 806 3 5.313 2000.000 0.000 0.352
29 725.00 1200.00 136 820 2 5.313 2000.000 0.000 0.352
30 750.00 1200.00 196 917 0 5.313 2000.000 0.000 0.352
31 775.00 1200.00 262 960 0 5.313 2000.000 0.000 0.352
32 800.00 1200.00 299 912 2 5.313 2000.000 0.000 0.352
33 825.00 1200.00 272 780 2 5.313 2000.000 0.000 0.352
34 850.00 1200.00 184 616 3 5.313 2000.000 0.000 0.352
35 875.00 1200.00 133 573 1 5.313 2000.000 0.000 0.352
36 900.00 1200.00 141 522 5 5.313 2000.000 0.000 0.352
37 925.00 1200.00 268 538 5 5.313 2000.000 0.000 0.352
38 950.00 1200.00 397 551 3 5.313 2000.000 0.000 0.352
39 975.00 1200.00 504 504 3 5.313 2000.000 0.000 0.352
