# BinNR microsec tot-time (s)  O-Beam AUX Ampl(V) f(Hz) phase(deg) chi(pos)
0 0.00 1200.00 92 316 2.000 10000.000 0.000 -1.099
1 3.00 1200.00 210 654 2.000 10000.000 0.000 -1.099
2 6.00 1200.00 216 693 2.000 10000.000 0.000 -1.099
3 9.00 1200.00 213 687 2.000 10000.000 0.000 -1.099
4 12.00 1200.00 207 735 2.000 10000.000 0.000 -1.099
5 15.00 1200.00 205 635 2.000 10000.000 0.000 -1.099
6 18.00 1200.00 202 673 2.000 10000.000 0.000 -1.099
7 21.00 1200.00 183 677 2.000 10000.000 0.000 -1.099
8 24.00 1200.00 164 662 2.000 10000.000 0.000 -1.099
9 27.00 1200.00 180 612 2.000 10000.000 0.000 -1.099
10 30.00 1200.00 169 611 2.000 10000.000 0.000 -1.099
11 33.00 1200.00 152 561 2.000 10000.000 0.000 -1.099
12 36.00 1200.00 167 544 2.000 10000.000 0.000 -1.099
13 39.00 1200.00 158 513 2.000 10000.000 0.000 -1.099
14 42.00 1200.00 154 492 2.000 10000.000 0.000 -1.099
15 45.00 1200.00 178 501 2.000 10000.000 0.000 -1.099
16 48.00 1200.00 161 534 2.000 10000.000 0.000 -1.099
17 51.00 1200.00 151 555 2.000 10000.000 0.000 -1.099
18 54.00 1200.00 170 554 2.000 10000.000 0.000 -1.099
19 57.00 1200.00 150 591 2.000 10000.000 0.000 -1.099
20 60.00 1200.00 202 543 2.000 10000.000 0.000 -1.099
21 63.00 1200.00 205 546 2.000 10000.000 0.000 -1.099
22 66.00 1200.00 199 612 2.000 10000.000 0.000 -1.099
23 69.00 1200.00 191 600 2.000 10000.000 0.000 -1.099
24 72.00 1200.00 229 672 2.000 10000.000 0.000 -1.099
25 75.00 1200.00 193 686 2.000 10000.000 0.000 -1.099
26 78.00 1200.00 228 651 2.000 10000.000 0.000 -1.099
27 81.00 1200.00 201 721 2.000 10000.000 0.000 -1.099
28 84.00 1200.00 229 687 2.000 10000.000 0.000 -1.099
29 87.00 1200.00 230 686 2.000 10000.000 0.000 -1.099
30 90.00 1200.00 228 673 2.000 10000.000 0.000 -1.099
31 93.00 1200.00 208 672 2.000 10000.000 0.000 -1.099
32 96.00 1200.00 208 604 2.000 10000.000 0.000 -1.099
33 99.00 1200.00 220 667 2.000 10000.000 0.000 -1.099
34 102.00 1200.00 262 667 2.000 10000.000 0.000 -1.099
35 105.00 1200.00 186 692 2.000 10000.000 0.000 -1.099
36 108.00 1200.00 221 650 2.000 10000.000 0.000 -1.099
37 111.00 1200.00 191 633 2.000 10000.000 0.000 -1.099
38 114.00 1200.00 178 672 2.000 10000.000 0.000 -1.099
39 117.00 1200.00 197 662 2.000 10000.000 0.000 -1.099
40 120.00 1200.00 171 704 2.000 10000.000 0.000 -1.099
41 123.00 1200.00 189 708 2.000 10000.000 0.000 -1.099
42 126.00 1200.00 165 647 2.000 10000.000 0.000 -1.099
43 129.00 1200.00 174 607 2.000 10000.000 0.000 -1.099
44 132.00 1200.00 160 606 2.000 10000.000 0.000 -1.099
45 135.00 1200.00 173 569 2.000 10000.000 0.000 -1.099
46 138.00 1200.00 160 525 2.000 10000.000 0.000 -1.099
47 141.00 1200.00 146 471 2.000 10000.000 0.000 -1.099
48 144.00 1200.00 166 501 2.000 10000.000 0.000 -1.099
49 147.00 1200.00 154 502 2.000 10000.000 0.000 -1.099
50 150.00 1200.00 189 471 2.000 10000.000 0.000 -1.099
51 153.00 1200.00 151 458 2.000 10000.000 0.000 -1.099
52 156.00 1200.00 154 525 2.000 10000.000 0.000 -1.099
53 159.00 1200.00 150 529 2.000 10000.000 0.000 -1.099
54 162.00 1200.00 191 499 2.000 10000.000 0.000 -1.099
55 165.00 1200.00 193 593 2.000 10000.000 0.000 -1.099
56 168.00 1200.00 168 581 2.000 10000.000 0.000 -1.099
57 171.00 1200.00 212 598 2.000 10000.000 0.000 -1.099
58 174.00 1200.00 189 650 2.000 10000.000 0.000 -1.099
59 177.00 1200.00 200 718 2.000 10000.000 0.000 -1.099
60 180.00 1200.00 198 717 2.000 10000.000 0.000 -1.099
61 183.00 1200.00 191 631 2.000 10000.000 0.000 -1.099
62 186.00 1200.00 226 651 2.000 10000.000 0.000 -1.099
63 189.00 1200.00 189 647 2.000 10000.000 0.000 -1.099
64 192.00 1200.00 219 639 2.000 10000.000 0.000 -1.099
65 195.00 1200.00 229 633 2.000 10000.000 0.000 -1.099
66 198.00 1200.00 206 666 2.000 10000.000 0.000 -1.099
67 201.00 1200.00 210 616 2.000 10000.000 0.000 -1.099
68 204.00 1200.00 230 623 2.000 10000.000 0.000 -1.099
69 207.00 1200.00 219 627 2.000 10000.000 0.000 -1.099
70 210.00 1200.00 212 674 2.000 10000.000 0.000 -1.099
71 213.00 1200.00 205 643 2.000 10000.000 0.000 -1.099
72 216.00 1200.00 185 685 2.000 10000.000 0.000 -1.099
73 219.00 1200.00 195 688 2.000 10000.000 0.000 -1.099
74 222.00 1200.00 170 737 2.000 10000.000 0.000 -1.099
75 225.00 1200.00 197 623 2.000 10000.000 0.000 -1.099
76 228.00 1200.00 181 645 2.000 10000.000 0.000 -1.099
77 231.00 1200.00 172 590 2.000 10000.000 0.000 -1.099
78 234.00 1200.00 158 570 2.000 10000.000 0.000 -1.099
79 237.00 1200.00 138 556 2.000 10000.000 0.000 -1.099
80 240.00 1200.00 143 545 2.000 10000.000 0.000 -1.099
81 243.00 1200.00 161 503 2.000 10000.000 0.000 -1.099
82 246.00 1200.00 151 471 2.000 10000.000 0.000 -1.099
83 249.00 1200.00 163 443 2.000 10000.000 0.000 -1.099
84 252.00 1200.00 159 490 2.000 10000.000 0.000 -1.099
85 255.00 1200.00 160 491 2.000 10000.000 0.000 -1.099
86 258.00 1200.00 152 521 2.000 10000.000 0.000 -1.099
87 261.00 1200.00 168 522 2.000 10000.000 0.000 -1.099
88 264.00 1200.00 186 548 2.000 10000.000 0.000 -1.099
89 267.00 1200.00 185 550 2.000 10000.000 0.000 -1.099
90 270.00 1200.00 207 663 2.000 10000.000 0.000 -1.099
91 273.00 1200.00 174 627 2.000 10000.000 0.000 -1.099
92 276.00 1200.00 214 663 2.000 10000.000 0.000 -1.099
93 279.00 1200.00 218 669 2.000 10000.000 0.000 -1.099
94 282.00 1200.00 184 701 2.000 10000.000 0.000 -1.099
95 285.00 1200.00 192 682 2.000 10000.000 0.000 -1.099
96 288.00 1200.00 222 654 2.000 10000.000 0.000 -1.099
97 291.00 1200.00 204 673 2.000 10000.000 0.000 -1.099
98 294.00 1200.00 234 649 2.000 10000.000 0.000 -1.099
99 297.00 1200.00 234 606 2.000 10000.000 0.000 -1.099
100 300.00 1200.00 236 624 2.000 10000.000 0.000 -1.099
101 303.00 1200.00 176 558 2.000 10000.000 0.000 -1.099
