# BinNR microsec tot-time (s)  O-Beam AUX Ampl(V) f(Hz) phase(deg) chi(pos)
0 0.00 1200.01 58 262 2.000 10000.000 0.000 0.505
1 3.00 1200.01 131 488 2.000 10000.000 0.000 0.505
2 6.00 1200.01 137 453 2.000 10000.000 0.000 0.505
3 9.00 1200.01 111 434 2.000 10000.000 0.000 0.505
4 12.00 1200.01 117 425 2.000 10000.000 0.000 0.505
5 15.00 1200.01 107 375 2.000 10000.000 0.000 0.505
6 18.00 1200.01 99 313 2.000 10000.000 0.000 0.505
7 21.00 1200.01 103 280 2.000 10000.000 0.000 0.505
8 24.00 1200.01 107 305 2.000 10000.000 0.000 0.505
9 27.00 1200.01 99 223 2.000 10000.000 0.000 0.505
10 30.00 1200.01 94 231 2.000 10000.000 0.000 0.505
11 33.00 1200.01 118 217 2.000 10000.000 0.000 0.505
12 36.00 1200.01 99 206 2.000 10000.000 0.000 0.505
13 39.00 1200.01 76 165 2.000 10000.000 0.000 0.505
14 42.00 1200.01 108 193 2.000 10000.000 0.000 0.505
15 45.00 1200.01 96 217 2.000 10000.000 0.000 0.505
16 48.00 1200.01 110 221 2.000 10000.000 0.000 0.505
17 51.00 1200.01 91 175 2.000 10000.000 0.000 0.505
18 54.00 1200.01 94 195 2.000 10000.000 0.000 0.505
19 57.00 1200.01 103 191 2.000 10000.000 0.000 0.505
20 60.00 1200.01 98 211 2.000 10000.000 0.000 0.505
21 63.00 1200.01 107 230 2.000 10000.000 0.000 0.505
22 66.00 1200.01 107 241 2.000 10000.000 0.000 0.505
23 69.00 1200.01 115 236 2.000 10000.000 0.000 0.505
24 72.00 1200.01 104 283 2.000 10000.000 0.000 0.505
25 75.00 1200.01 126 330 2.000 10000.000 0.000 0.505
26 78.00 1200.01 129 328 2.000 10000.000 0.000 0.505
27 81.00 1200.01 147 396 2.000 10000.000 0.000 0.505
28 84.00 1200.01 149 453 2.000 10000.000 0.000 0.505
29 87.00 1200.01 133 448 2.000 10000.000 0.000 0.505
30 90.00 1200.01 143 474 2.000 10000.000 0.000 0.505
31 93.00 1200.01 145 460 2.000 10000.000 0.000 0.505
32 96.00 1200.01 156 557 2.000 10000.000 0.000 0.505
33 99.00 1200.01 118 484 2.000 10000.000 0.000 0.505
34 102.00 1200.01 140 492 2.000 10000.000 0.000 0.505
35 105.00 1200.01 127 504 2.000 10000.000 0.000 0.505
36 108.00 1200.01 121 457 2.000 10000.000 0.000 0.505
37 111.00 1200.01 117 465 2.000 10000.000 0.000 0.505
38 114.00 1200.01 105 431 2.000 10000.000 0.000 0.505
39 117.00 1200.01 92 414 2.000 10000.000 0.000 0.505
40 120.00 1200.01 92 370 2.000 10000.000 0.000 0.505
41 123.00 1200.01 114 332 2.000 10000.000 0.000 0.505
42 126.00 1200.01 102 291 2.000 10000.000 0.000 0.505
43 129.00 1200.01 108 261 2.000 10000.000 0.000 0.505
44 132.00 1200.01 115 222 2.000 10000.000 0.000 0.505
45 135.00 1200.01 78 237 2.000 10000.000 0.000 0.505
46 138.00 1200.01 93 199 2.000 10000.000 0.000 0.505
47 141.00 1200.01 91 205 2.000 10000.000 0.000 0.505
48 144.00 1200.01 93 167 2.000 10000.000 0.000 0.505
49 147.00 1200.01 72 189 2.000 10000.000 0.000 0.505
50 150.00 1200.01 80 199 2.000 10000.000 0.000 0.505
51 153.00 1200.01 87 180 2.000 10000.000 0.000 0.505
52 156.00 1200.01 98 174 2.000 10000.000 0.000 0.505
53 159.00 1200.01 85 180 2.000 10000.000 0.000 0.505
54 162.00 1200.01 94 218 2.000 10000.000 0.000 0.505
55 165.00 1200.01 95 215 2.000 10000.000 0.000 0.505
56 168.00 1200.01 117 251 2.000 10000.000 0.000 0.505
57 171.00 1200.01 100 283 2.000 10000.000 0.000 0.505
58 174.00 1200.01 126 300 2.000 10000.000 0.000 0.505
59 177.00 1200.01 122 351 2.000 10000.000 0.000 0.505
60 180.00 1200.01 119 423 2.000 10000.000 0.000 0.505
61 183.00 1200.01 134 398 2.000 10000.000 0.000 0.505
62 186.00 1200.01 150 438 2.000 10000.000 0.000 0.505
63 189.00 1200.01 134 459 2.000 10000.000 0.000 0.505
64 192.00 1200.01 151 509 2.000 10000.000 0.000 0.505
65 195.00 1200.01 147 516 2.000 10000.000 0.000 0.505
66 198.00 1200.01 132 509 2.000 10000.000 0.000 0.505
67 201.00 1200.01 151 513 2.000 10000.000 0.000 0.505
68 204.00 1200.01 135 424 2.000 10000.000 0.000 0.505
69 207.00 1200.01 128 496 2.000 10000.000 0.000 0.505
70 210.00 1200.01 121 488 2.000 10000.000 0.000 0.505
71 213.00 1200.01 111 456 2.000 10000.000 0.000 0.505
72 216.00 1200.01 127 392 2.000 10000.000 0.000 0.505
73 219.00 1200.01 95 348 2.000 10000.000 0.000 0.505
74 222.00 1200.01 119 365 2.000 10000.000 0.000 0.505
75 225.00 1200.01 104 323 2.000 10000.000 0.000 0.505
76 228.00 1200.01 102 273 2.000 10000.000 0.000 0.505
77 231.00 1200.01 74 244 2.000 10000.000 0.000 0.505
78 234.00 1200.01 100 206 2.000 10000.000 0.000 0.505
79 237.00 1200.01 94 202 2.000 10000.000 0.000 0.505
80 240.00 1200.01 77 201 2.000 10000.000 0.000 0.505
81 243.00 1200.01 87 197 2.000 10000.000 0.000 0.505
82 246.00 1200.01 100 167 2.000 10000.000 0.000 0.505
83 249.00 1200.01 97 187 2.000 10000.000 0.000 0.505
84 252.00 1200.01 72 173 2.000 10000.000 0.000 0.505
85 255.00 1200.01 99 183 2.000 10000.000 0.000 0.505
86 258.00 1200.01 87 183 2.000 10000.000 0.000 0.505
87 261.00 1200.01 81 218 2.000 10000.000 0.000 0.505
88 264.00 1200.01 91 217 2.000 10000.000 0.000 0.505
89 267.00 1200.01 84 221 2.000 10000.000 0.000 0.505
90 270.00 1200.01 116 255 2.000 10000.000 0.000 0.505
91 273.00 1200.01 115 291 2.000 10000.000 0.000 0.505
92 276.00 1200.01 97 343 2.000 10000.000 0.000 0.505
93 279.00 1200.01 120 371 2.000 10000.000 0.000 0.505
94 282.00 1200.01 150 417 2.000 10000.000 0.000 0.505
95 285.00 1200.01 127 427 2.000 10000.000 0.000 0.505
96 288.00 1200.01 139 470 2.000 10000.000 0.000 0.505
97 291.00 1200.01 130 448 2.000 10000.000 0.000 0.505
98 294.00 1200.01 119 507 2.000 10000.000 0.000 0.505
99 297.00 1200.01 139 489 2.000 10000.000 0.000 0.505
100 300.00 1200.01 133 526 2.000 10000.000 0.000 0.505
101 303.00 1200.01 100 473 2.000 10000.000 0.000 0.505
