# BinNR microsec tot-time (s)  O-Beam AUX Ampl(V) f(Hz) phase(deg) chi(pos)
0 0.00 1200.00 56 167 2.000 10000.000 0.000 0.297
1 3.00 1200.00 93 355 2.000 10000.000 0.000 0.297
2 6.00 1200.00 104 305 2.000 10000.000 0.000 0.297
3 9.00 1200.00 90 280 2.000 10000.000 0.000 0.297
4 12.00 1200.00 102 244 2.000 10000.000 0.000 0.297
5 15.00 1200.00 98 216 2.000 10000.000 0.000 0.297
6 18.00 1200.00 97 188 2.000 10000.000 0.000 0.297
7 21.00 1200.00 95 152 2.000 10000.000 0.000 0.297
8 24.00 1200.00 108 130 2.000 10000.000 0.000 0.297
9 27.00 1200.00 110 138 2.000 10000.000 0.000 0.297
10 30.00 1200.00 106 124 2.000 10000.000 0.000 0.297
11 33.00 1200.00 112 110 2.000 10000.000 0.000 0.297
12 36.00 1200.00 94 121 2.000 10000.000 0.000 0.297
13 39.00 1200.00 114 134 2.000 10000.000 0.000 0.297
14 42.00 1200.00 93 143 2.000 10000.000 0.000 0.297
15 45.00 1200.00 100 119 2.000 10000.000 0.000 0.297
16 48.00 1200.00 101 132 2.000 10000.000 0.000 0.297
17 51.00 1200.00 107 106 2.000 10000.000 0.000 0.297
18 54.00 1200.00 109 141 2.000 10000.000 0.000 0.297
19 57.00 1200.00 107 124 2.000 10000.000 0.000 0.297
20 60.00 1200.00 107 130 2.000 10000.000 0.000 0.297
21 63.00 1200.00 97 125 2.000 10000.000 0.000 0.297
22 66.00 1200.00 92 107 2.000 10000.000 0.000 0.297
23 69.00 1200.00 96 141 2.000 10000.000 0.000 0.297
24 72.00 1200.00 86 152 2.000 10000.000 0.000 0.297
25 75.00 1200.00 95 167 2.000 10000.000 0.000 0.297
26 78.00 1200.00 91 179 2.000 10000.000 0.000 0.297
27 81.00 1200.00 92 203 2.000 10000.000 0.000 0.297
28 84.00 1200.00 122 264 2.000 10000.000 0.000 0.297
29 87.00 1200.00 100 285 2.000 10000.000 0.000 0.297
30 90.00 1200.00 118 307 2.000 10000.000 0.000 0.297
31 93.00 1200.00 104 327 2.000 10000.000 0.000 0.297
32 96.00 1200.00 105 364 2.000 10000.000 0.000 0.297
33 99.00 1200.00 103 326 2.000 10000.000 0.000 0.297
34 102.00 1200.00 83 375 2.000 10000.000 0.000 0.297
35 105.00 1200.00 107 363 2.000 10000.000 0.000 0.297
36 108.00 1200.00 94 330 2.000 10000.000 0.000 0.297
37 111.00 1200.00 92 283 2.000 10000.000 0.000 0.297
38 114.00 1200.00 86 263 2.000 10000.000 0.000 0.297
39 117.00 1200.00 80 213 2.000 10000.000 0.000 0.297
40 120.00 1200.00 88 213 2.000 10000.000 0.000 0.297
41 123.00 1200.00 91 176 2.000 10000.000 0.000 0.297
42 126.00 1200.00 110 153 2.000 10000.000 0.000 0.297
43 129.00 1200.00 102 141 2.000 10000.000 0.000 0.297
44 132.00 1200.00 118 130 2.000 10000.000 0.000 0.297
45 135.00 1200.00 112 111 2.000 10000.000 0.000 0.297
46 138.00 1200.00 109 132 2.000 10000.000 0.000 0.297
47 141.00 1200.00 99 128 2.000 10000.000 0.000 0.297
48 144.00 1200.00 98 140 2.000 10000.000 0.000 0.297
49 147.00 1200.00 116 142 2.000 10000.000 0.000 0.297
50 150.00 1200.00 127 129 2.000 10000.000 0.000 0.297
51 153.00 1200.00 105 142 2.000 10000.000 0.000 0.297
52 156.00 1200.00 99 125 2.000 10000.000 0.000 0.297
53 159.00 1200.00 103 120 2.000 10000.000 0.000 0.297
54 162.00 1200.00 105 112 2.000 10000.000 0.000 0.297
55 165.00 1200.00 97 121 2.000 10000.000 0.000 0.297
56 168.00 1200.00 88 127 2.000 10000.000 0.000 0.297
57 171.00 1200.00 83 126 2.000 10000.000 0.000 0.297
58 174.00 1200.00 95 156 2.000 10000.000 0.000 0.297
59 177.00 1200.00 81 161 2.000 10000.000 0.000 0.297
60 180.00 1200.00 123 211 2.000 10000.000 0.000 0.297
61 183.00 1200.00 107 234 2.000 10000.000 0.000 0.297
62 186.00 1200.00 113 280 2.000 10000.000 0.000 0.297
63 189.00 1200.00 112 307 2.000 10000.000 0.000 0.297
64 192.00 1200.00 106 328 2.000 10000.000 0.000 0.297
65 195.00 1200.00 98 346 2.000 10000.000 0.000 0.297
66 198.00 1200.00 109 354 2.000 10000.000 0.000 0.297
67 201.00 1200.00 97 366 2.000 10000.000 0.000 0.297
68 204.00 1200.00 106 354 2.000 10000.000 0.000 0.297
69 207.00 1200.00 97 337 2.000 10000.000 0.000 0.297
70 210.00 1200.00 96 323 2.000 10000.000 0.000 0.297
71 213.00 1200.00 95 233 2.000 10000.000 0.000 0.297
72 216.00 1200.00 82 263 2.000 10000.000 0.000 0.297
73 219.00 1200.00 76 193 2.000 10000.000 0.000 0.297
74 222.00 1200.00 110 199 2.000 10000.000 0.000 0.297
75 225.00 1200.00 100 164 2.000 10000.000 0.000 0.297
76 228.00 1200.00 97 128 2.000 10000.000 0.000 0.297
77 231.00 1200.00 115 129 2.000 10000.000 0.000 0.297
78 234.00 1200.00 105 139 2.000 10000.000 0.000 0.297
79 237.00 1200.00 117 131 2.000 10000.000 0.000 0.297
80 240.00 1200.00 97 142 2.000 10000.000 0.000 0.297
81 243.00 1200.00 103 141 2.000 10000.000 0.000 0.297
82 246.00 1200.00 110 157 2.000 10000.000 0.000 0.297
83 249.00 1200.00 102 127 2.000 10000.000 0.000 0.297
84 252.00 1200.00 110 128 2.000 10000.000 0.000 0.297
85 255.00 1200.00 100 119 2.000 10000.000 0.000 0.297
86 258.00 1200.00 101 126 2.000 10000.000 0.000 0.297
87 261.00 1200.00 93 144 2.000 10000.000 0.000 0.297
88 264.00 1200.00 97 126 2.000 10000.000 0.000 0.297
89 267.00 1200.00 96 119 2.000 10000.000 0.000 0.297
90 270.00 1200.00 91 127 2.000 10000.000 0.000 0.297
91 273.00 1200.00 99 181 2.000 10000.000 0.000 0.297
92 276.00 1200.00 95 183 2.000 10000.000 0.000 0.297
93 279.00 1200.00 84 211 2.000 10000.000 0.000 0.297
94 282.00 1200.00 104 265 2.000 10000.000 0.000 0.297
95 285.00 1200.00 108 260 2.000 10000.000 0.000 0.297
96 288.00 1200.00 102 282 2.000 10000.000 0.000 0.297
97 291.00 1200.00 116 315 2.000 10000.000 0.000 0.297
98 294.00 1200.00 116 327 2.000 10000.000 0.000 0.297
99 297.00 1200.00 96 350 2.000 10000.000 0.000 0.297
100 300.00 1200.00 108 343 2.000 10000.000 0.000 0.297
101 303.00 1200.00 93 265 2.000 10000.000 0.000 0.297
