# BinNR microsec tot-time (s)  O-Beam AUX Ampl(V) f(Hz) phase(deg) chi(pos)
0 0.00 1200.01 88 233 2.000 10000.000 0.000 -1.505
1 3.00 1200.01 135 458 2.000 10000.000 0.000 -1.505
2 6.00 1200.01 133 467 2.000 10000.000 0.000 -1.505
3 9.00 1200.01 113 419 2.000 10000.000 0.000 -1.505
4 12.00 1200.01 120 429 2.000 10000.000 0.000 -1.505
5 15.00 1200.01 108 357 2.000 10000.000 0.000 -1.505
6 18.00 1200.01 107 333 2.000 10000.000 0.000 -1.505
7 21.00 1200.01 104 267 2.000 10000.000 0.000 -1.505
8 24.00 1200.01 125 245 2.000 10000.000 0.000 -1.505
9 27.00 1200.01 87 215 2.000 10000.000 0.000 -1.505
10 30.00 1200.01 97 204 2.000 10000.000 0.000 -1.505
11 33.00 1200.01 108 201 2.000 10000.000 0.000 -1.505
12 36.00 1200.01 116 186 2.000 10000.000 0.000 -1.505
13 39.00 1200.01 105 194 2.000 10000.000 0.000 -1.505
14 42.00 1200.01 95 248 2.000 10000.000 0.000 -1.505
15 45.00 1200.01 106 190 2.000 10000.000 0.000 -1.505
16 48.00 1200.01 101 186 2.000 10000.000 0.000 -1.505
17 51.00 1200.01 96 215 2.000 10000.000 0.000 -1.505
18 54.00 1200.01 100 172 2.000 10000.000 0.000 -1.505
19 57.00 1200.01 98 189 2.000 10000.000 0.000 -1.505
20 60.00 1200.01 96 203 2.000 10000.000 0.000 -1.505
21 63.00 1200.01 124 197 2.000 10000.000 0.000 -1.505
22 66.00 1200.01 100 244 2.000 10000.000 0.000 -1.505
23 69.00 1200.01 122 219 2.000 10000.000 0.000 -1.505
24 72.00 1200.01 107 274 2.000 10000.000 0.000 -1.505
25 75.00 1200.01 128 315 2.000 10000.000 0.000 -1.505
26 78.00 1200.01 126 334 2.000 10000.000 0.000 -1.505
27 81.00 1200.01 128 398 2.000 10000.000 0.000 -1.505
28 84.00 1200.01 169 405 2.000 10000.000 0.000 -1.505
29 87.00 1200.01 147 437 2.000 10000.000 0.000 -1.505
30 90.00 1200.01 138 501 2.000 10000.000 0.000 -1.505
31 93.00 1200.01 154 516 2.000 10000.000 0.000 -1.505
32 96.00 1200.01 139 510 2.000 10000.000 0.000 -1.505
33 99.00 1200.01 142 523 2.000 10000.000 0.000 -1.505
34 102.00 1200.01 127 545 2.000 10000.000 0.000 -1.505
35 105.00 1200.01 140 526 2.000 10000.000 0.000 -1.505
36 108.00 1200.01 114 475 2.000 10000.000 0.000 -1.505
37 111.00 1200.01 127 446 2.000 10000.000 0.000 -1.505
38 114.00 1200.01 116 437 2.000 10000.000 0.000 -1.505
39 117.00 1200.01 109 420 2.000 10000.000 0.000 -1.505
40 120.00 1200.01 92 369 2.000 10000.000 0.000 -1.505
41 123.00 1200.01 104 301 2.000 10000.000 0.000 -1.505
42 126.00 1200.01 112 251 2.000 10000.000 0.000 -1.505
43 129.00 1200.01 106 239 2.000 10000.000 0.000 -1.505
44 132.00 1200.01 101 217 2.000 10000.000 0.000 -1.505
45 135.00 1200.01 107 200 2.000 10000.000 0.000 -1.505
46 138.00 1200.01 108 191 2.000 10000.000 0.000 -1.505
47 141.00 1200.01 103 193 2.000 10000.000 0.000 -1.505
48 144.00 1200.01 103 177 2.000 10000.000 0.000 -1.505
49 147.00 1200.01 83 168 2.000 10000.000 0.000 -1.505
50 150.00 1200.01 109 200 2.000 10000.000 0.000 -1.505
51 153.00 1200.01 94 165 2.000 10000.000 0.000 -1.505
52 156.00 1200.01 114 175 2.000 10000.000 0.000 -1.505
53 159.00 1200.01 113 189 2.000 10000.000 0.000 -1.505
54 162.00 1200.01 124 217 2.000 10000.000 0.000 -1.505
55 165.00 1200.01 119 209 2.000 10000.000 0.000 -1.505
56 168.00 1200.01 129 250 2.000 10000.000 0.000 -1.505
57 171.00 1200.01 113 246 2.000 10000.000 0.000 -1.505
58 174.00 1200.01 133 299 2.000 10000.000 0.000 -1.505
59 177.00 1200.01 128 329 2.000 10000.000 0.000 -1.505
60 180.00 1200.01 150 337 2.000 10000.000 0.000 -1.505
61 183.00 1200.01 147 418 2.000 10000.000 0.000 -1.505
62 186.00 1200.01 135 400 2.000 10000.000 0.000 -1.505
63 189.00 1200.01 144 466 2.000 10000.000 0.000 -1.505
64 192.00 1200.01 149 521 2.000 10000.000 0.000 -1.505
65 195.00 1200.01 157 476 2.000 10000.000 0.000 -1.505
66 198.00 1200.01 145 484 2.000 10000.000 0.000 -1.505
67 201.00 1200.01 141 505 2.000 10000.000 0.000 -1.505
68 204.00 1200.01 132 514 2.000 10000.000 0.000 -1.505
69 207.00 1200.01 143 487 2.000 10000.000 0.000 -1.505
70 210.00 1200.01 130 471 2.000 10000.000 0.000 -1.505
71 213.00 1200.01 129 457 2.000 10000.000 0.000 -1.505
72 216.00 1200.01 120 414 2.000 10000.000 0.000 -1.505
73 219.00 1200.01 109 363 2.000 10000.000 0.000 -1.505
74 222.00 1200.01 105 343 2.000 10000.000 0.000 -1.505
75 225.00 1200.01 94 300 2.000 10000.000 0.000 -1.505
76 228.00 1200.01 110 228 2.000 10000.000 0.000 -1.505
77 231.00 1200.01 100 256 2.000 10000.000 0.000 -1.505
78 234.00 1200.01 97 218 2.000 10000.000 0.000 -1.505
79 237.00 1200.01 119 169 2.000 10000.000 0.000 -1.505
80 240.00 1200.01 102 208 2.000 10000.000 0.000 -1.505
81 243.00 1200.01 106 176 2.000 10000.000 0.000 -1.505
82 246.00 1200.01 97 220 2.000 10000.000 0.000 -1.505
83 249.00 1200.01 122 197 2.000 10000.000 0.000 -1.505
84 252.00 1200.01 119 199 2.000 10000.000 0.000 -1.505
85 255.00 1200.01 110 183 2.000 10000.000 0.000 -1.505
86 258.00 1200.01 115 184 2.000 10000.000 0.000 -1.505
87 261.00 1200.01 107 211 2.000 10000.000 0.000 -1.505
88 264.00 1200.01 110 205 2.000 10000.000 0.000 -1.505
89 267.00 1200.01 122 222 2.000 10000.000 0.000 -1.505
90 270.00 1200.01 107 275 2.000 10000.000 0.000 -1.505
91 273.00 1200.01 119 274 2.000 10000.000 0.000 -1.505
92 276.00 1200.01 125 341 2.000 10000.000 0.000 -1.505
93 279.00 1200.01 141 352 2.000 10000.000 0.000 -1.505
94 282.00 1200.01 138 368 2.000 10000.000 0.000 -1.505
95 285.00 1200.01 132 430 2.000 10000.000 0.000 -1.505
96 288.00 1200.01 148 475 2.000 10000.000 0.000 -1.505
97 291.00 1200.01 158 468 2.000 10000.000 0.000 -1.505
98 294.00 1200.01 135 487 2.000 10000.000 0.000 -1.505
99 297.00 1200.01 142 485 2.000 10000.000 0.000 -1.505
100 300.00 1200.01 129 501 2.000 10000.000 0.000 -1.505
101 303.00 1200.01 138 417 2.000 10000.000 0.000 -1.505
