Start Motor Scan on 03/02/2025@12:47 | Measure Time (sec):60| Bg detector (cnts/sec):0.000000| Bg monitor (cnts/sec):0.00000060| Mon.lim.  (cnts/sec):  0
Ioff (cnts/sec): 0.103026   ErrIoff: 0.000826  Pp.d.Pa:  0.000000  ErrPp.d.Pal:  0.000000	Pol: 0.000000	ErrPol: 0.000000
Power Supply 1 (mA): OFF| Power Supply 2 (mA): OFF| Power Supply 3 (mA): OFF| Power Supply 4 (mA): OFF| Power Supply 5 (mA): OFF| Power Supply 6 (mA): OFF   
Position (Steps)Detector (cnts):   Monitor_Max,Min (cnts/sec):   Norm(1/s):   err(1/s) :     FlippRatio:     ErrFlippRatio        
3600000.00000000	5085.00000000	423.00000000	323.00000000	0.22897154	0.00355965	0.44995273	0.00787127
3400000.00000000	2880.00000000	412.00000000	318.00000000	0.12940912	0.00256268	0.79612912	0.01700989
3200000.00000000	1227.00000000	411.00000000	331.00000000	0.05501749	0.00161327	1.87261133	0.05692781
3000000.00000000	432.00000000	421.00000000	317.00000000	0.01948755	0.00094669	5.28677910	0.26030415
2800000.00000000	744.00000000	407.00000000	323.00000000	0.03339618	0.00124464	3.08497510	0.11760645
2600000.00000000	1897.00000000	410.00000000	332.00000000	0.08602394	0.00205828	1.19764761	0.03022333
2400000.00000000	3954.00000000	428.00000000	319.00000000	0.17860692	0.00308365	0.57683302	0.01098134
2200000.00000000	6165.00000000	420.00000000	325.00000000	0.27617256	0.00397346	0.37305071	0.00614506
2000000.00000000	8447.00000000	422.00000000	312.00000000	0.38049550	0.00486425	0.27076896	0.00408645
1800000.00000000	10532.00000000	419.00000000	324.00000000	0.46961252	0.00554735	0.21938591	0.00313251
1600000.00000000	11694.00000000	440.00000000	327.00000000	0.52730306	0.00602617	0.19538360	0.00272800
1400000.00000000	11750.00000000	422.00000000	314.00000000	0.52842238	0.00602676	0.19496973	0.00271853
1200000.00000000	10620.00000000	430.00000000	334.00000000	0.47284061	0.00556840	0.21788816	0.00310462
1000000.00000000	8929.00000000	416.00000000	337.00000000	0.39719751	0.00496860	0.25938322	0.00385442
800000.00000000	6690.00000000	416.00000000	314.00000000	0.29786287	0.00414875	0.34588524	0.00555939
600000.00000000	4228.00000000	426.00000000	318.00000000	0.18924847	0.00317396	0.54439738	0.01012079
400000.00000000	2197.00000000	435.00000000	309.00000000	0.09815924	0.00219457	1.04958408	0.02493030
200000.00000000	838.00000000	415.00000000	330.00000000	0.03735069	0.00131413	2.75835279	0.09953899
0.00000000	533.00000000	433.00000000	331.00000000	0.02352993	0.00103112	4.37852408	0.19506104
