# BinNR microsec tot-time (s)  O-Beam AUX Ampl(V) f(Hz) phase(deg) chi(pos)
0 0.00 1200.00 45 64 1.100 10000.000 0.000 0.330
1 3.00 1200.00 114 116 1.100 10000.000 0.000 0.330
2 6.00 1200.00 112 131 1.100 10000.000 0.000 0.330
3 9.00 1200.00 97 99 1.100 10000.000 0.000 0.330
4 12.00 1200.00 92 113 1.100 10000.000 0.000 0.330
5 15.00 1200.00 108 101 1.100 10000.000 0.000 0.330
6 18.00 1200.00 125 122 1.100 10000.000 0.000 0.330
7 21.00 1200.00 105 128 1.100 10000.000 0.000 0.330
8 24.00 1200.00 76 117 1.100 10000.000 0.000 0.330
9 27.00 1200.00 92 127 1.100 10000.000 0.000 0.330
10 30.00 1200.00 89 129 1.100 10000.000 0.000 0.330
11 33.00 1200.00 99 109 1.100 10000.000 0.000 0.330
12 36.00 1200.00 83 109 1.100 10000.000 0.000 0.330
13 39.00 1200.00 74 114 1.100 10000.000 0.000 0.330
14 42.00 1200.00 94 129 1.100 10000.000 0.000 0.330
15 45.00 1200.00 89 102 1.100 10000.000 0.000 0.330
16 48.00 1200.00 96 116 1.100 10000.000 0.000 0.330
17 51.00 1200.00 104 121 1.100 10000.000 0.000 0.330
18 54.00 1200.00 97 119 1.100 10000.000 0.000 0.330
19 57.00 1200.00 98 109 1.100 10000.000 0.000 0.330
20 60.00 1200.00 81 108 1.100 10000.000 0.000 0.330
21 63.00 1200.00 94 116 1.100 10000.000 0.000 0.330
22 66.00 1200.00 99 128 1.100 10000.000 0.000 0.330
23 69.00 1200.00 105 102 1.100 10000.000 0.000 0.330
24 72.00 1200.00 103 114 1.100 10000.000 0.000 0.330
25 75.00 1200.00 112 109 1.100 10000.000 0.000 0.330
26 78.00 1200.00 114 115 1.100 10000.000 0.000 0.330
27 81.00 1200.00 97 143 1.100 10000.000 0.000 0.330
28 84.00 1200.00 113 130 1.100 10000.000 0.000 0.330
29 87.00 1200.00 120 124 1.100 10000.000 0.000 0.330
30 90.00 1200.00 125 136 1.100 10000.000 0.000 0.330
31 93.00 1200.00 105 128 1.100 10000.000 0.000 0.330
32 96.00 1200.00 107 138 1.100 10000.000 0.000 0.330
33 99.00 1200.00 113 147 1.100 10000.000 0.000 0.330
34 102.00 1200.00 114 116 1.100 10000.000 0.000 0.330
35 105.00 1200.00 108 119 1.100 10000.000 0.000 0.330
36 108.00 1200.00 109 153 1.100 10000.000 0.000 0.330
37 111.00 1200.00 99 131 1.100 10000.000 0.000 0.330
38 114.00 1200.00 114 114 1.100 10000.000 0.000 0.330
39 117.00 1200.00 108 119 1.100 10000.000 0.000 0.330
40 120.00 1200.00 96 106 1.100 10000.000 0.000 0.330
41 123.00 1200.00 89 115 1.100 10000.000 0.000 0.330
42 126.00 1200.00 98 116 1.100 10000.000 0.000 0.330
43 129.00 1200.00 79 102 1.100 10000.000 0.000 0.330
44 132.00 1200.00 111 133 1.100 10000.000 0.000 0.330
45 135.00 1200.00 93 126 1.100 10000.000 0.000 0.330
46 138.00 1200.00 98 96 1.100 10000.000 0.000 0.330
47 141.00 1200.00 78 132 1.100 10000.000 0.000 0.330
48 144.00 1200.00 86 116 1.100 10000.000 0.000 0.330
49 147.00 1200.00 95 107 1.100 10000.000 0.000 0.330
50 150.00 1200.00 87 123 1.100 10000.000 0.000 0.330
51 153.00 1200.00 93 124 1.100 10000.000 0.000 0.330
52 156.00 1200.00 92 133 1.100 10000.000 0.000 0.330
53 159.00 1200.00 108 121 1.100 10000.000 0.000 0.330
54 162.00 1200.00 91 121 1.100 10000.000 0.000 0.330
55 165.00 1200.00 97 135 1.100 10000.000 0.000 0.330
56 168.00 1200.00 98 134 1.100 10000.000 0.000 0.330
57 171.00 1200.00 93 134 1.100 10000.000 0.000 0.330
58 174.00 1200.00 116 127 1.100 10000.000 0.000 0.330
59 177.00 1200.00 106 114 1.100 10000.000 0.000 0.330
60 180.00 1200.00 109 129 1.100 10000.000 0.000 0.330
61 183.00 1200.00 102 136 1.100 10000.000 0.000 0.330
62 186.00 1200.00 109 122 1.100 10000.000 0.000 0.330
63 189.00 1200.00 107 132 1.100 10000.000 0.000 0.330
64 192.00 1200.00 98 157 1.100 10000.000 0.000 0.330
65 195.00 1200.00 99 136 1.100 10000.000 0.000 0.330
66 198.00 1200.00 101 136 1.100 10000.000 0.000 0.330
67 201.00 1200.00 106 142 1.100 10000.000 0.000 0.330
68 204.00 1200.00 105 147 1.100 10000.000 0.000 0.330
69 207.00 1200.00 103 124 1.100 10000.000 0.000 0.330
70 210.00 1200.00 135 139 1.100 10000.000 0.000 0.330
71 213.00 1200.00 91 126 1.100 10000.000 0.000 0.330
72 216.00 1200.00 90 129 1.100 10000.000 0.000 0.330
73 219.00 1200.00 102 115 1.100 10000.000 0.000 0.330
74 222.00 1200.00 76 110 1.100 10000.000 0.000 0.330
75 225.00 1200.00 104 124 1.100 10000.000 0.000 0.330
76 228.00 1200.00 94 132 1.100 10000.000 0.000 0.330
77 231.00 1200.00 91 120 1.100 10000.000 0.000 0.330
78 234.00 1200.00 80 110 1.100 10000.000 0.000 0.330
79 237.00 1200.00 100 120 1.100 10000.000 0.000 0.330
80 240.00 1200.00 88 134 1.100 10000.000 0.000 0.330
81 243.00 1200.00 87 128 1.100 10000.000 0.000 0.330
82 246.00 1200.00 114 132 1.100 10000.000 0.000 0.330
83 249.00 1200.00 79 123 1.100 10000.000 0.000 0.330
84 252.00 1200.00 90 116 1.100 10000.000 0.000 0.330
85 255.00 1200.00 93 94 1.100 10000.000 0.000 0.330
86 258.00 1200.00 99 125 1.100 10000.000 0.000 0.330
87 261.00 1200.00 109 103 1.100 10000.000 0.000 0.330
88 264.00 1200.00 84 111 1.100 10000.000 0.000 0.330
89 267.00 1200.00 113 111 1.100 10000.000 0.000 0.330
90 270.00 1200.00 105 144 1.100 10000.000 0.000 0.330
91 273.00 1200.00 100 135 1.100 10000.000 0.000 0.330
92 276.00 1200.00 119 145 1.100 10000.000 0.000 0.330
93 279.00 1200.00 110 125 1.100 10000.000 0.000 0.330
94 282.00 1200.00 110 148 1.100 10000.000 0.000 0.330
95 285.00 1200.00 118 128 1.100 10000.000 0.000 0.330
96 288.00 1200.00 103 120 1.100 10000.000 0.000 0.330
97 291.00 1200.00 106 123 1.100 10000.000 0.000 0.330
98 294.00 1200.00 116 130 1.100 10000.000 0.000 0.330
99 297.00 1200.00 100 124 1.100 10000.000 0.000 0.330
100 300.00 1200.00 105 142 1.100 10000.000 0.000 0.330
101 303.00 1200.00 106 119 1.100 10000.000 0.000 0.330
102 306.00 1200.00 107 153 1.100 10000.000 0.000 0.330
103 309.00 1200.00 95 130 1.100 10000.000 0.000 0.330
104 312.00 1200.00 95 144 1.100 10000.000 0.000 0.330
105 315.00 1200.00 93 118 1.100 10000.000 0.000 0.330
106 318.00 1200.00 101 130 1.100 10000.000 0.000 0.330
107 321.00 1200.00 91 100 1.100 10000.000 0.000 0.330
108 324.00 1200.00 92 127 1.100 10000.000 0.000 0.330
109 327.00 1200.00 80 109 1.100 10000.000 0.000 0.330
110 330.00 1200.00 108 121 1.100 10000.000 0.000 0.330
111 333.00 1200.00 77 125 1.100 10000.000 0.000 0.330
112 336.00 1200.00 101 113 1.100 10000.000 0.000 0.330
113 339.00 1200.00 99 130 1.100 10000.000 0.000 0.330
114 342.00 1200.00 99 123 1.100 10000.000 0.000 0.330
115 345.00 1200.00 96 126 1.100 10000.000 0.000 0.330
116 348.00 1200.00 81 120 1.100 10000.000 0.000 0.330
117 351.00 1200.00 107 127 1.100 10000.000 0.000 0.330
118 354.00 1200.00 76 102 1.100 10000.000 0.000 0.330
119 357.00 1200.00 81 114 1.100 10000.000 0.000 0.330
120 360.00 1200.00 97 131 1.100 10000.000 0.000 0.330
121 363.00 1200.00 93 107 1.100 10000.000 0.000 0.330
122 366.00 1200.00 102 122 1.100 10000.000 0.000 0.330
123 369.00 1200.00 89 122 1.100 10000.000 0.000 0.330
124 372.00 1200.00 119 117 1.100 10000.000 0.000 0.330
125 375.00 1200.00 106 124 1.100 10000.000 0.000 0.330
126 378.00 1200.00 86 140 1.100 10000.000 0.000 0.330
127 381.00 1200.00 113 129 1.100 10000.000 0.000 0.330
128 384.00 1200.00 117 147 1.100 10000.000 0.000 0.330
129 387.00 1200.00 98 131 1.100 10000.000 0.000 0.330
130 390.00 1200.00 120 121 1.100 10000.000 0.000 0.330
131 393.00 1200.00 110 131 1.100 10000.000 0.000 0.330
132 396.00 1200.00 106 138 1.100 10000.000 0.000 0.330
133 399.00 1200.00 121 124 1.100 10000.000 0.000 0.330
134 402.00 1200.00 100 168 1.100 10000.000 0.000 0.330
