# BinNR microsec tot-time (s)  O-Beam AUX Ampl(V) f(Hz) phase(deg) chi(pos)
0 0.00 1200.01 107 194 1.100 10000.000 0.000 0.011
1 3.00 1200.01 211 362 1.100 10000.000 0.000 0.011
2 6.00 1200.01 216 374 1.100 10000.000 0.000 0.011
3 9.00 1200.01 208 368 1.100 10000.000 0.000 0.011
4 12.00 1200.01 173 340 1.100 10000.000 0.000 0.011
5 15.00 1200.01 181 296 1.100 10000.000 0.000 0.011
6 18.00 1200.01 184 322 1.100 10000.000 0.000 0.011
7 21.00 1200.01 192 317 1.100 10000.000 0.000 0.011
8 24.00 1200.01 207 298 1.100 10000.000 0.000 0.011
9 27.00 1200.01 192 310 1.100 10000.000 0.000 0.011
10 30.00 1200.01 211 315 1.100 10000.000 0.000 0.011
11 33.00 1200.01 186 292 1.100 10000.000 0.000 0.011
12 36.00 1200.01 186 282 1.100 10000.000 0.000 0.011
13 39.00 1200.01 181 281 1.100 10000.000 0.000 0.011
14 42.00 1200.01 174 325 1.100 10000.000 0.000 0.011
15 45.00 1200.01 162 310 1.100 10000.000 0.000 0.011
16 48.00 1200.01 208 328 1.100 10000.000 0.000 0.011
17 51.00 1200.01 180 258 1.100 10000.000 0.000 0.011
18 54.00 1200.01 182 271 1.100 10000.000 0.000 0.011
19 57.00 1200.01 194 319 1.100 10000.000 0.000 0.011
20 60.00 1200.01 196 322 1.100 10000.000 0.000 0.011
21 63.00 1200.01 185 348 1.100 10000.000 0.000 0.011
22 66.00 1200.01 212 340 1.100 10000.000 0.000 0.011
23 69.00 1200.01 210 338 1.100 10000.000 0.000 0.011
24 72.00 1200.01 207 420 1.100 10000.000 0.000 0.011
25 75.00 1200.01 238 346 1.100 10000.000 0.000 0.011
26 78.00 1200.01 222 445 1.100 10000.000 0.000 0.011
27 81.00 1200.01 244 410 1.100 10000.000 0.000 0.011
28 84.00 1200.01 247 410 1.100 10000.000 0.000 0.011
29 87.00 1200.01 221 411 1.100 10000.000 0.000 0.011
30 90.00 1200.01 215 444 1.100 10000.000 0.000 0.011
31 93.00 1200.01 234 393 1.100 10000.000 0.000 0.011
32 96.00 1200.01 217 405 1.100 10000.000 0.000 0.011
33 99.00 1200.01 220 411 1.100 10000.000 0.000 0.011
34 102.00 1200.01 243 417 1.100 10000.000 0.000 0.011
35 105.00 1200.01 230 394 1.100 10000.000 0.000 0.011
36 108.00 1200.01 210 425 1.100 10000.000 0.000 0.011
37 111.00 1200.01 238 405 1.100 10000.000 0.000 0.011
38 114.00 1200.01 208 413 1.100 10000.000 0.000 0.011
39 117.00 1200.01 221 350 1.100 10000.000 0.000 0.011
40 120.00 1200.01 204 365 1.100 10000.000 0.000 0.011
41 123.00 1200.01 188 322 1.100 10000.000 0.000 0.011
42 126.00 1200.01 170 312 1.100 10000.000 0.000 0.011
43 129.00 1200.01 205 329 1.100 10000.000 0.000 0.011
44 132.00 1200.01 201 279 1.100 10000.000 0.000 0.011
45 135.00 1200.01 161 293 1.100 10000.000 0.000 0.011
46 138.00 1200.01 194 290 1.100 10000.000 0.000 0.011
47 141.00 1200.01 189 298 1.100 10000.000 0.000 0.011
48 144.00 1200.01 173 293 1.100 10000.000 0.000 0.011
49 147.00 1200.01 160 276 1.100 10000.000 0.000 0.011
50 150.00 1200.01 203 289 1.100 10000.000 0.000 0.011
51 153.00 1200.01 202 317 1.100 10000.000 0.000 0.011
52 156.00 1200.01 194 301 1.100 10000.000 0.000 0.011
53 159.00 1200.01 190 288 1.100 10000.000 0.000 0.011
54 162.00 1200.01 224 342 1.100 10000.000 0.000 0.011
55 165.00 1200.01 197 362 1.100 10000.000 0.000 0.011
56 168.00 1200.01 186 391 1.100 10000.000 0.000 0.011
57 171.00 1200.01 214 343 1.100 10000.000 0.000 0.011
58 174.00 1200.01 237 417 1.100 10000.000 0.000 0.011
59 177.00 1200.01 225 381 1.100 10000.000 0.000 0.011
60 180.00 1200.01 218 370 1.100 10000.000 0.000 0.011
61 183.00 1200.01 232 391 1.100 10000.000 0.000 0.011
62 186.00 1200.01 213 425 1.100 10000.000 0.000 0.011
63 189.00 1200.01 224 441 1.100 10000.000 0.000 0.011
64 192.00 1200.01 218 454 1.100 10000.000 0.000 0.011
65 195.00 1200.01 221 433 1.100 10000.000 0.000 0.011
66 198.00 1200.01 221 411 1.100 10000.000 0.000 0.011
67 201.00 1200.01 241 415 1.100 10000.000 0.000 0.011
68 204.00 1200.01 215 394 1.100 10000.000 0.000 0.011
69 207.00 1200.01 209 399 1.100 10000.000 0.000 0.011
70 210.00 1200.01 226 353 1.100 10000.000 0.000 0.011
71 213.00 1200.01 195 378 1.100 10000.000 0.000 0.011
72 216.00 1200.01 206 370 1.100 10000.000 0.000 0.011
73 219.00 1200.01 220 311 1.100 10000.000 0.000 0.011
74 222.00 1200.01 195 328 1.100 10000.000 0.000 0.011
75 225.00 1200.01 168 298 1.100 10000.000 0.000 0.011
76 228.00 1200.01 196 289 1.100 10000.000 0.000 0.011
77 231.00 1200.01 180 268 1.100 10000.000 0.000 0.011
78 234.00 1200.01 200 281 1.100 10000.000 0.000 0.011
79 237.00 1200.01 185 280 1.100 10000.000 0.000 0.011
80 240.00 1200.01 174 256 1.100 10000.000 0.000 0.011
81 243.00 1200.01 169 292 1.100 10000.000 0.000 0.011
82 246.00 1200.01 189 290 1.100 10000.000 0.000 0.011
83 249.00 1200.01 191 279 1.100 10000.000 0.000 0.011
84 252.00 1200.01 195 290 1.100 10000.000 0.000 0.011
85 255.00 1200.01 196 316 1.100 10000.000 0.000 0.011
86 258.00 1200.01 183 293 1.100 10000.000 0.000 0.011
87 261.00 1200.01 214 283 1.100 10000.000 0.000 0.011
88 264.00 1200.01 213 350 1.100 10000.000 0.000 0.011
89 267.00 1200.01 217 363 1.100 10000.000 0.000 0.011
90 270.00 1200.01 213 371 1.100 10000.000 0.000 0.011
91 273.00 1200.01 230 373 1.100 10000.000 0.000 0.011
92 276.00 1200.01 235 382 1.100 10000.000 0.000 0.011
93 279.00 1200.01 237 386 1.100 10000.000 0.000 0.011
94 282.00 1200.01 239 413 1.100 10000.000 0.000 0.011
95 285.00 1200.01 257 428 1.100 10000.000 0.000 0.011
96 288.00 1200.01 242 424 1.100 10000.000 0.000 0.011
97 291.00 1200.01 220 413 1.100 10000.000 0.000 0.011
98 294.00 1200.01 216 395 1.100 10000.000 0.000 0.011
99 297.00 1200.01 232 423 1.100 10000.000 0.000 0.011
100 300.00 1200.01 222 409 1.100 10000.000 0.000 0.011
101 303.00 1200.01 225 387 1.100 10000.000 0.000 0.011
102 306.00 1200.01 243 414 1.100 10000.000 0.000 0.011
103 309.00 1200.01 227 399 1.100 10000.000 0.000 0.011
104 312.00 1200.01 225 394 1.100 10000.000 0.000 0.011
105 315.00 1200.01 202 322 1.100 10000.000 0.000 0.011
106 318.00 1200.01 194 355 1.100 10000.000 0.000 0.011
107 321.00 1200.01 196 337 1.100 10000.000 0.000 0.011
108 324.00 1200.01 195 313 1.100 10000.000 0.000 0.011
109 327.00 1200.01 193 290 1.100 10000.000 0.000 0.011
110 330.00 1200.01 172 314 1.100 10000.000 0.000 0.011
111 333.00 1200.01 154 326 1.100 10000.000 0.000 0.011
112 336.00 1200.01 181 299 1.100 10000.000 0.000 0.011
113 339.00 1200.01 197 274 1.100 10000.000 0.000 0.011
114 342.00 1200.01 164 273 1.100 10000.000 0.000 0.011
115 345.00 1200.01 180 254 1.100 10000.000 0.000 0.011
116 348.00 1200.01 197 278 1.100 10000.000 0.000 0.011
117 351.00 1200.01 153 292 1.100 10000.000 0.000 0.011
118 354.00 1200.01 211 308 1.100 10000.000 0.000 0.011
119 357.00 1200.01 173 293 1.100 10000.000 0.000 0.011
120 360.00 1200.01 188 348 1.100 10000.000 0.000 0.011
121 363.00 1200.01 203 343 1.100 10000.000 0.000 0.011
122 366.00 1200.01 225 363 1.100 10000.000 0.000 0.011
123 369.00 1200.01 207 378 1.100 10000.000 0.000 0.011
124 372.00 1200.01 262 376 1.100 10000.000 0.000 0.011
125 375.00 1200.01 174 391 1.100 10000.000 0.000 0.011
126 378.00 1200.01 207 335 1.100 10000.000 0.000 0.011
127 381.00 1200.01 211 379 1.100 10000.000 0.000 0.011
128 384.00 1200.01 218 406 1.100 10000.000 0.000 0.011
129 387.00 1200.01 196 401 1.100 10000.000 0.000 0.011
130 390.00 1200.01 223 421 1.100 10000.000 0.000 0.011
131 393.00 1200.01 268 420 1.100 10000.000 0.000 0.011
132 396.00 1200.01 188 392 1.100 10000.000 0.000 0.011
133 399.00 1200.01 241 414 1.100 10000.000 0.000 0.011
134 402.00 1200.01 228 425 1.100 10000.000 0.000 0.011
