# BinNR microsec tot-time (s)  O-Beam AUX Ampl(V) f(Hz) phase(deg) chi(pos)
0 0.00 1200.00 53 89 1.100 10000.000 0.000 -1.494
1 3.00 1200.00 79 171 1.100 10000.000 0.000 -1.494
2 6.00 1200.00 89 184 1.100 10000.000 0.000 -1.494
3 9.00 1200.00 76 191 1.100 10000.000 0.000 -1.494
4 12.00 1200.00 104 189 1.100 10000.000 0.000 -1.494
5 15.00 1200.00 82 184 1.100 10000.000 0.000 -1.494
6 18.00 1200.00 95 192 1.100 10000.000 0.000 -1.494
7 21.00 1200.00 105 227 1.100 10000.000 0.000 -1.494
8 24.00 1200.00 88 228 1.100 10000.000 0.000 -1.494
9 27.00 1200.00 89 232 1.100 10000.000 0.000 -1.494
10 30.00 1200.00 90 250 1.100 10000.000 0.000 -1.494
11 33.00 1200.00 88 241 1.100 10000.000 0.000 -1.494
12 36.00 1200.00 76 260 1.100 10000.000 0.000 -1.494
13 39.00 1200.00 96 239 1.100 10000.000 0.000 -1.494
14 42.00 1200.00 101 255 1.100 10000.000 0.000 -1.494
15 45.00 1200.00 91 219 1.100 10000.000 0.000 -1.494
16 48.00 1200.00 83 271 1.100 10000.000 0.000 -1.494
17 51.00 1200.00 76 235 1.100 10000.000 0.000 -1.494
18 54.00 1200.00 106 254 1.100 10000.000 0.000 -1.494
19 57.00 1200.00 78 241 1.100 10000.000 0.000 -1.494
20 60.00 1200.00 93 217 1.100 10000.000 0.000 -1.494
21 63.00 1200.00 76 199 1.100 10000.000 0.000 -1.494
22 66.00 1200.00 92 210 1.100 10000.000 0.000 -1.494
23 69.00 1200.00 82 206 1.100 10000.000 0.000 -1.494
24 72.00 1200.00 78 186 1.100 10000.000 0.000 -1.494
25 75.00 1200.00 86 164 1.100 10000.000 0.000 -1.494
26 78.00 1200.00 74 160 1.100 10000.000 0.000 -1.494
27 81.00 1200.00 73 144 1.100 10000.000 0.000 -1.494
28 84.00 1200.00 87 177 1.100 10000.000 0.000 -1.494
29 87.00 1200.00 80 155 1.100 10000.000 0.000 -1.494
30 90.00 1200.00 86 170 1.100 10000.000 0.000 -1.494
31 93.00 1200.00 88 173 1.100 10000.000 0.000 -1.494
32 96.00 1200.00 79 156 1.100 10000.000 0.000 -1.494
33 99.00 1200.00 95 163 1.100 10000.000 0.000 -1.494
34 102.00 1200.00 88 153 1.100 10000.000 0.000 -1.494
35 105.00 1200.00 98 143 1.100 10000.000 0.000 -1.494
36 108.00 1200.00 95 162 1.100 10000.000 0.000 -1.494
37 111.00 1200.00 85 172 1.100 10000.000 0.000 -1.494
38 114.00 1200.00 105 206 1.100 10000.000 0.000 -1.494
39 117.00 1200.00 89 189 1.100 10000.000 0.000 -1.494
40 120.00 1200.00 84 191 1.100 10000.000 0.000 -1.494
41 123.00 1200.00 105 203 1.100 10000.000 0.000 -1.494
42 126.00 1200.00 93 235 1.100 10000.000 0.000 -1.494
43 129.00 1200.00 93 183 1.100 10000.000 0.000 -1.494
44 132.00 1200.00 81 228 1.100 10000.000 0.000 -1.494
45 135.00 1200.00 111 217 1.100 10000.000 0.000 -1.494
46 138.00 1200.00 75 260 1.100 10000.000 0.000 -1.494
47 141.00 1200.00 88 231 1.100 10000.000 0.000 -1.494
48 144.00 1200.00 94 256 1.100 10000.000 0.000 -1.494
49 147.00 1200.00 76 236 1.100 10000.000 0.000 -1.494
50 150.00 1200.00 108 220 1.100 10000.000 0.000 -1.494
51 153.00 1200.00 102 217 1.100 10000.000 0.000 -1.494
52 156.00 1200.00 96 236 1.100 10000.000 0.000 -1.494
53 159.00 1200.00 81 200 1.100 10000.000 0.000 -1.494
54 162.00 1200.00 93 185 1.100 10000.000 0.000 -1.494
55 165.00 1200.00 89 213 1.100 10000.000 0.000 -1.494
56 168.00 1200.00 88 186 1.100 10000.000 0.000 -1.494
57 171.00 1200.00 103 184 1.100 10000.000 0.000 -1.494
58 174.00 1200.00 85 184 1.100 10000.000 0.000 -1.494
59 177.00 1200.00 92 161 1.100 10000.000 0.000 -1.494
60 180.00 1200.00 84 164 1.100 10000.000 0.000 -1.494
61 183.00 1200.00 83 137 1.100 10000.000 0.000 -1.494
62 186.00 1200.00 82 177 1.100 10000.000 0.000 -1.494
63 189.00 1200.00 92 146 1.100 10000.000 0.000 -1.494
64 192.00 1200.00 77 127 1.100 10000.000 0.000 -1.494
65 195.00 1200.00 89 178 1.100 10000.000 0.000 -1.494
66 198.00 1200.00 93 165 1.100 10000.000 0.000 -1.494
67 201.00 1200.00 109 180 1.100 10000.000 0.000 -1.494
68 204.00 1200.00 70 167 1.100 10000.000 0.000 -1.494
69 207.00 1200.00 85 170 1.100 10000.000 0.000 -1.494
70 210.00 1200.00 65 174 1.100 10000.000 0.000 -1.494
71 213.00 1200.00 93 194 1.100 10000.000 0.000 -1.494
72 216.00 1200.00 97 192 1.100 10000.000 0.000 -1.494
73 219.00 1200.00 105 175 1.100 10000.000 0.000 -1.494
74 222.00 1200.00 97 191 1.100 10000.000 0.000 -1.494
75 225.00 1200.00 99 210 1.100 10000.000 0.000 -1.494
76 228.00 1200.00 91 205 1.100 10000.000 0.000 -1.494
77 231.00 1200.00 79 220 1.100 10000.000 0.000 -1.494
78 234.00 1200.00 89 240 1.100 10000.000 0.000 -1.494
79 237.00 1200.00 88 243 1.100 10000.000 0.000 -1.494
80 240.00 1200.00 115 216 1.100 10000.000 0.000 -1.494
81 243.00 1200.00 91 246 1.100 10000.000 0.000 -1.494
82 246.00 1200.00 87 256 1.100 10000.000 0.000 -1.494
83 249.00 1200.00 104 196 1.100 10000.000 0.000 -1.494
84 252.00 1200.00 80 278 1.100 10000.000 0.000 -1.494
85 255.00 1200.00 84 223 1.100 10000.000 0.000 -1.494
86 258.00 1200.00 91 232 1.100 10000.000 0.000 -1.494
87 261.00 1200.00 97 223 1.100 10000.000 0.000 -1.494
88 264.00 1200.00 110 188 1.100 10000.000 0.000 -1.494
89 267.00 1200.00 96 178 1.100 10000.000 0.000 -1.494
90 270.00 1200.00 85 190 1.100 10000.000 0.000 -1.494
91 273.00 1200.00 94 178 1.100 10000.000 0.000 -1.494
92 276.00 1200.00 98 188 1.100 10000.000 0.000 -1.494
93 279.00 1200.00 80 168 1.100 10000.000 0.000 -1.494
94 282.00 1200.00 81 155 1.100 10000.000 0.000 -1.494
95 285.00 1200.00 95 152 1.100 10000.000 0.000 -1.494
96 288.00 1200.00 88 140 1.100 10000.000 0.000 -1.494
97 291.00 1200.00 89 146 1.100 10000.000 0.000 -1.494
98 294.00 1200.00 95 151 1.100 10000.000 0.000 -1.494
99 297.00 1200.00 93 158 1.100 10000.000 0.000 -1.494
100 300.00 1200.00 85 144 1.100 10000.000 0.000 -1.494
101 303.00 1200.00 94 175 1.100 10000.000 0.000 -1.494
102 306.00 1200.00 90 159 1.100 10000.000 0.000 -1.494
103 309.00 1200.00 99 177 1.100 10000.000 0.000 -1.494
104 312.00 1200.00 96 164 1.100 10000.000 0.000 -1.494
105 315.00 1200.00 65 188 1.100 10000.000 0.000 -1.494
106 318.00 1200.00 79 183 1.100 10000.000 0.000 -1.494
107 321.00 1200.00 106 194 1.100 10000.000 0.000 -1.494
108 324.00 1200.00 117 219 1.100 10000.000 0.000 -1.494
109 327.00 1200.00 93 250 1.100 10000.000 0.000 -1.494
110 330.00 1200.00 93 223 1.100 10000.000 0.000 -1.494
111 333.00 1200.00 92 222 1.100 10000.000 0.000 -1.494
112 336.00 1200.00 85 250 1.100 10000.000 0.000 -1.494
113 339.00 1200.00 94 221 1.100 10000.000 0.000 -1.494
114 342.00 1200.00 90 263 1.100 10000.000 0.000 -1.494
115 345.00 1200.00 96 253 1.100 10000.000 0.000 -1.494
116 348.00 1200.00 99 234 1.100 10000.000 0.000 -1.494
117 351.00 1200.00 84 241 1.100 10000.000 0.000 -1.494
118 354.00 1200.00 89 268 1.100 10000.000 0.000 -1.494
119 357.00 1200.00 87 233 1.100 10000.000 0.000 -1.494
120 360.00 1200.00 105 222 1.100 10000.000 0.000 -1.494
121 363.00 1200.00 98 220 1.100 10000.000 0.000 -1.494
122 366.00 1200.00 84 201 1.100 10000.000 0.000 -1.494
123 369.00 1200.00 78 167 1.100 10000.000 0.000 -1.494
124 372.00 1200.00 87 184 1.100 10000.000 0.000 -1.494
125 375.00 1200.00 79 186 1.100 10000.000 0.000 -1.494
126 378.00 1200.00 100 137 1.100 10000.000 0.000 -1.494
127 381.00 1200.00 87 155 1.100 10000.000 0.000 -1.494
128 384.00 1200.00 94 154 1.100 10000.000 0.000 -1.494
129 387.00 1200.00 82 151 1.100 10000.000 0.000 -1.494
130 390.00 1200.00 91 158 1.100 10000.000 0.000 -1.494
131 393.00 1200.00 83 145 1.100 10000.000 0.000 -1.494
132 396.00 1200.00 85 140 1.100 10000.000 0.000 -1.494
133 399.00 1200.00 95 146 1.100 10000.000 0.000 -1.494
134 402.00 1200.00 82 182 1.100 10000.000 0.000 -1.494
