# BinNR microsec tot-time (s)  O-Beam H-beam AUX Ampl1(V) f1(Hz) phase1(deg) Ampl1(V) f1(Hz) phase1(deg) chi(pos)
0 0.00 1200.00 43 258 137 0.850 2000.000 0.000 0.850 3000.000 0.000 1.494
1 16.67 1200.00 63 233 128 0.850 2000.000 0.000 0.850 3000.000 0.000 1.494
2 33.33 1200.00 48 231 126 0.850 2000.000 0.000 0.850 3000.000 0.000 1.494
3 50.00 1200.00 43 233 120 0.850 2000.000 0.000 0.850 3000.000 0.000 1.494
4 66.67 1200.00 41 215 121 0.850 2000.000 0.000 0.850 3000.000 0.000 1.494
5 83.33 1200.00 52 223 130 0.850 2000.000 0.000 0.850 3000.000 0.000 1.494
6 100.00 1200.00 52 179 131 0.850 2000.000 0.000 0.850 3000.000 0.000 1.494
7 116.67 1200.00 49 218 120 0.850 2000.000 0.000 0.850 3000.000 0.000 1.494
8 133.33 1200.00 56 183 130 0.850 2000.000 0.000 0.850 3000.000 0.000 1.494
9 150.00 1200.00 55 204 142 0.850 2000.000 0.000 0.850 3000.000 0.000 1.494
10 166.67 1200.00 46 209 136 0.850 2000.000 0.000 0.850 3000.000 0.000 1.494
11 183.33 1200.00 68 254 124 0.850 2000.000 0.000 0.850 3000.000 0.000 1.494
12 200.00 1200.00 54 267 129 0.850 2000.000 0.000 0.850 3000.000 0.000 1.494
13 216.67 1200.00 66 234 165 0.850 2000.000 0.000 0.850 3000.000 0.000 1.494
14 233.33 1200.00 70 235 146 0.850 2000.000 0.000 0.850 3000.000 0.000 1.494
15 250.00 1200.00 58 264 125 0.850 2000.000 0.000 0.850 3000.000 0.000 1.494
16 266.67 1200.00 57 239 119 0.850 2000.000 0.000 0.850 3000.000 0.000 1.494
17 283.33 1200.00 53 255 130 0.850 2000.000 0.000 0.850 3000.000 0.000 1.494
18 300.00 1200.00 57 234 134 0.850 2000.000 0.000 0.850 3000.000 0.000 1.494
19 316.67 1200.00 51 257 121 0.850 2000.000 0.000 0.850 3000.000 0.000 1.494
20 333.33 1200.00 51 256 126 0.850 2000.000 0.000 0.850 3000.000 0.000 1.494
21 350.00 1200.00 51 261 108 0.850 2000.000 0.000 0.850 3000.000 0.000 1.494
22 366.67 1200.00 29 254 118 0.850 2000.000 0.000 0.850 3000.000 0.000 1.494
23 383.33 1200.00 31 232 131 0.850 2000.000 0.000 0.850 3000.000 0.000 1.494
24 400.00 1200.00 33 235 161 0.850 2000.000 0.000 0.850 3000.000 0.000 1.494
25 416.67 1200.00 32 222 135 0.850 2000.000 0.000 0.850 3000.000 0.000 1.494
26 433.33 1200.00 30 255 153 0.850 2000.000 0.000 0.850 3000.000 0.000 1.494
27 450.00 1200.00 35 247 148 0.850 2000.000 0.000 0.850 3000.000 0.000 1.494
28 466.67 1200.00 49 249 152 0.850 2000.000 0.000 0.850 3000.000 0.000 1.494
29 483.33 1200.00 49 260 156 0.850 2000.000 0.000 0.850 3000.000 0.000 1.494
30 500.00 1200.00 52 280 169 0.850 2000.000 0.000 0.850 3000.000 0.000 1.494
31 516.67 1200.00 42 295 173 0.850 2000.000 0.000 0.850 3000.000 0.000 1.494
32 533.33 1200.00 65 264 146 0.850 2000.000 0.000 0.850 3000.000 0.000 1.494
33 550.00 1200.00 53 304 172 0.850 2000.000 0.000 0.850 3000.000 0.000 1.494
34 566.67 1200.00 62 280 165 0.850 2000.000 0.000 0.850 3000.000 0.000 1.494
35 583.33 1200.00 63 283 158 0.850 2000.000 0.000 0.850 3000.000 0.000 1.494
36 600.00 1200.00 58 229 138 0.850 2000.000 0.000 0.850 3000.000 0.000 1.494
37 616.67 1200.00 56 247 123 0.850 2000.000 0.000 0.850 3000.000 0.000 1.494
38 633.33 1200.00 59 207 111 0.850 2000.000 0.000 0.850 3000.000 0.000 1.494
39 650.00 1200.00 53 226 123 0.850 2000.000 0.000 0.850 3000.000 0.000 1.494
40 666.67 1200.00 40 200 102 0.850 2000.000 0.000 0.850 3000.000 0.000 1.494
41 683.33 1200.00 53 186 93 0.850 2000.000 0.000 0.850 3000.000 0.000 1.494
42 700.00 1200.00 54 223 80 0.850 2000.000 0.000 0.850 3000.000 0.000 1.494
43 716.67 1200.00 53 194 88 0.850 2000.000 0.000 0.850 3000.000 0.000 1.494
44 733.33 1200.00 37 211 101 0.850 2000.000 0.000 0.850 3000.000 0.000 1.494
45 750.00 1200.00 49 186 90 0.850 2000.000 0.000 0.850 3000.000 0.000 1.494
46 766.67 1200.00 38 212 126 0.850 2000.000 0.000 0.850 3000.000 0.000 1.494
47 783.33 1200.00 53 213 126 0.850 2000.000 0.000 0.850 3000.000 0.000 1.494
48 800.00 1200.00 68 251 148 0.850 2000.000 0.000 0.850 3000.000 0.000 1.494
49 816.67 1200.00 49 242 161 0.850 2000.000 0.000 0.850 3000.000 0.000 1.494
50 833.34 1200.00 57 262 161 0.850 2000.000 0.000 0.850 3000.000 0.000 1.494
51 850.00 1200.00 44 304 146 0.850 2000.000 0.000 0.850 3000.000 0.000 1.494
52 866.67 1200.00 43 330 175 0.850 2000.000 0.000 0.850 3000.000 0.000 1.494
53 883.34 1200.00 50 337 154 0.850 2000.000 0.000 0.850 3000.000 0.000 1.494
54 900.00 1200.00 53 331 163 0.850 2000.000 0.000 0.850 3000.000 0.000 1.494
55 916.67 1200.00 49 325 144 0.850 2000.000 0.000 0.850 3000.000 0.000 1.494
56 933.34 1200.00 52 349 140 0.850 2000.000 0.000 0.850 3000.000 0.000 1.494
57 950.00 1200.00 48 318 159 0.850 2000.000 0.000 0.850 3000.000 0.000 1.494
58 966.67 1200.00 47 300 154 0.850 2000.000 0.000 0.850 3000.000 0.000 1.494
59 983.34 1200.00 43 271 130 0.850 2000.000 0.000 0.850 3000.000 0.000 1.494
60 1000.00 1200.00 34 256 119 0.850 2000.000 0.000 0.850 3000.000 0.000 1.494
61 1016.67 1200.00 44 235 131 0.850 2000.000 0.000 0.850 3000.000 0.000 1.494
62 1033.34 1200.00 59 200 142 0.850 2000.000 0.000 0.850 3000.000 0.000 1.494
63 1050.00 1200.00 47 250 128 0.850 2000.000 0.000 0.850 3000.000 0.000 1.494
64 1066.67 1200.00 52 193 146 0.850 2000.000 0.000 0.850 3000.000 0.000 1.494
65 1083.34 1200.00 36 208 122 0.850 2000.000 0.000 0.850 3000.000 0.000 1.494
66 1100.00 1200.00 46 213 136 0.850 2000.000 0.000 0.850 3000.000 0.000 1.494
67 1116.67 1200.00 57 207 115 0.850 2000.000 0.000 0.850 3000.000 0.000 1.494
68 1133.34 1200.00 59 202 147 0.850 2000.000 0.000 0.850 3000.000 0.000 1.494
69 1150.00 1200.00 67 229 155 0.850 2000.000 0.000 0.850 3000.000 0.000 1.494
70 1166.67 1200.00 52 213 126 0.850 2000.000 0.000 0.850 3000.000 0.000 1.494
71 1183.34 1200.00 64 222 157 0.850 2000.000 0.000 0.850 3000.000 0.000 1.494
72 1200.00 1200.00 74 218 154 0.850 2000.000 0.000 0.850 3000.000 0.000 1.494
73 1216.67 1200.00 64 237 150 0.850 2000.000 0.000 0.850 3000.000 0.000 1.494
74 1233.34 1200.00 63 249 144 0.850 2000.000 0.000 0.850 3000.000 0.000 1.494
75 1250.00 1200.00 67 236 127 0.850 2000.000 0.000 0.850 3000.000 0.000 1.494
76 1266.67 1200.00 63 265 122 0.850 2000.000 0.000 0.850 3000.000 0.000 1.494
77 1283.34 1200.00 68 237 109 0.850 2000.000 0.000 0.850 3000.000 0.000 1.494
78 1300.00 1200.00 64 254 137 0.850 2000.000 0.000 0.850 3000.000 0.000 1.494
79 1316.67 1200.00 43 256 107 0.850 2000.000 0.000 0.850 3000.000 0.000 1.494
80 1333.34 1200.00 54 262 123 0.850 2000.000 0.000 0.850 3000.000 0.000 1.494
81 1350.00 1200.00 49 262 108 0.850 2000.000 0.000 0.850 3000.000 0.000 1.494
82 1366.67 1200.00 31 225 131 0.850 2000.000 0.000 0.850 3000.000 0.000 1.494
83 1383.34 1200.00 26 256 146 0.850 2000.000 0.000 0.850 3000.000 0.000 1.494
84 1400.00 1200.00 43 249 144 0.850 2000.000 0.000 0.850 3000.000 0.000 1.494
85 1416.67 1200.00 42 235 146 0.850 2000.000 0.000 0.850 3000.000 0.000 1.494
86 1433.34 1200.00 38 252 167 0.850 2000.000 0.000 0.850 3000.000 0.000 1.494
87 1450.00 1200.00 28 239 146 0.850 2000.000 0.000 0.850 3000.000 0.000 1.494
88 1466.67 1200.00 58 254 161 0.850 2000.000 0.000 0.850 3000.000 0.000 1.494
89 1483.34 1200.00 42 240 164 0.850 2000.000 0.000 0.850 3000.000 0.000 1.494
90 1500.00 1200.00 46 261 146 0.850 2000.000 0.000 0.850 3000.000 0.000 1.494
91 1516.67 1200.00 57 290 183 0.850 2000.000 0.000 0.850 3000.000 0.000 1.494
92 1533.34 1200.00 59 275 175 0.850 2000.000 0.000 0.850 3000.000 0.000 1.494
93 1550.00 1200.00 60 262 151 0.850 2000.000 0.000 0.850 3000.000 0.000 1.494
94 1566.67 1200.00 55 264 151 0.850 2000.000 0.000 0.850 3000.000 0.000 1.494
95 1583.34 1200.00 70 282 133 0.850 2000.000 0.000 0.850 3000.000 0.000 1.494
96 1600.00 1200.00 44 264 124 0.850 2000.000 0.000 0.850 3000.000 0.000 1.494
97 1616.67 1200.00 64 245 103 0.850 2000.000 0.000 0.850 3000.000 0.000 1.494
98 1633.34 1200.00 50 209 82 0.850 2000.000 0.000 0.850 3000.000 0.000 1.494
99 1650.00 1200.00 68 226 90 0.850 2000.000 0.000 0.850 3000.000 0.000 1.494
100 1666.67 1200.00 53 196 113 0.850 2000.000 0.000 0.850 3000.000 0.000 1.494
101 1683.34 1200.00 46 205 78 0.850 2000.000 0.000 0.850 3000.000 0.000 1.494
102 1700.00 1200.00 44 219 81 0.850 2000.000 0.000 0.850 3000.000 0.000 1.494
103 1716.67 1200.00 50 203 91 0.850 2000.000 0.000 0.850 3000.000 0.000 1.494
104 1733.34 1200.00 53 203 93 0.850 2000.000 0.000 0.850 3000.000 0.000 1.494
105 1750.00 1200.00 51 194 105 0.850 2000.000 0.000 0.850 3000.000 0.000 1.494
106 1766.67 1200.00 44 222 134 0.850 2000.000 0.000 0.850 3000.000 0.000 1.494
107 1783.34 1200.00 31 243 148 0.850 2000.000 0.000 0.850 3000.000 0.000 1.494
108 1800.00 1200.00 37 243 124 0.850 2000.000 0.000 0.850 3000.000 0.000 1.494
109 1816.67 1200.00 45 256 148 0.850 2000.000 0.000 0.850 3000.000 0.000 1.494
110 1833.34 1200.00 54 297 163 0.850 2000.000 0.000 0.850 3000.000 0.000 1.494
111 1850.00 1200.00 52 275 173 0.850 2000.000 0.000 0.850 3000.000 0.000 1.494
112 1866.67 1200.00 44 318 156 0.850 2000.000 0.000 0.850 3000.000 0.000 1.494
113 1883.34 1200.00 60 308 167 0.850 2000.000 0.000 0.850 3000.000 0.000 1.494
114 1900.00 1200.00 53 322 170 0.850 2000.000 0.000 0.850 3000.000 0.000 1.494
115 1916.67 1200.00 55 305 158 0.850 2000.000 0.000 0.850 3000.000 0.000 1.494
116 1933.34 1200.00 53 316 147 0.850 2000.000 0.000 0.850 3000.000 0.000 1.494
117 1950.00 1200.00 42 296 155 0.850 2000.000 0.000 0.850 3000.000 0.000 1.494
118 1966.67 1200.00 44 279 134 0.850 2000.000 0.000 0.850 3000.000 0.000 1.494
119 1983.34 1200.00 50 251 134 0.850 2000.000 0.000 0.850 3000.000 0.000 1.494
