# BinNR microsec tot-time (s)  O-Beam H-beam AUX Ampl1(V) f1(Hz) phase1(deg) Ampl1(V) f1(Hz) phase1(deg) chi(pos)
0 0.00 1200.00 153 484 405 2.010 2000.000 0.000 2.010 3000.000 0.000 1.208
1 16.67 1200.00 151 491 398 2.010 2000.000 0.000 2.010 3000.000 0.000 1.208
2 33.33 1200.00 135 478 369 2.010 2000.000 0.000 2.010 3000.000 0.000 1.208
3 50.00 1200.00 153 508 439 2.010 2000.000 0.000 2.010 3000.000 0.000 1.208
4 66.67 1200.00 146 462 409 2.010 2000.000 0.000 2.010 3000.000 0.000 1.208
5 83.33 1200.00 152 436 434 2.010 2000.000 0.000 2.010 3000.000 0.000 1.208
6 100.00 1200.00 142 471 443 2.010 2000.000 0.000 2.010 3000.000 0.000 1.208
7 116.67 1200.00 186 471 438 2.010 2000.000 0.000 2.010 3000.000 0.000 1.208
8 133.33 1200.00 167 457 441 2.010 2000.000 0.000 2.010 3000.000 0.000 1.208
9 150.00 1200.00 158 475 414 2.010 2000.000 0.000 2.010 3000.000 0.000 1.208
10 166.67 1200.00 162 510 412 2.010 2000.000 0.000 2.010 3000.000 0.000 1.208
11 183.33 1200.00 150 491 409 2.010 2000.000 0.000 2.010 3000.000 0.000 1.208
12 200.00 1200.00 174 500 412 2.010 2000.000 0.000 2.010 3000.000 0.000 1.208
13 216.67 1200.00 147 504 404 2.010 2000.000 0.000 2.010 3000.000 0.000 1.208
14 233.33 1200.00 165 520 450 2.010 2000.000 0.000 2.010 3000.000 0.000 1.208
15 250.00 1200.00 152 525 395 2.010 2000.000 0.000 2.010 3000.000 0.000 1.208
16 266.67 1200.00 162 515 445 2.010 2000.000 0.000 2.010 3000.000 0.000 1.208
17 283.33 1200.00 143 495 430 2.010 2000.000 0.000 2.010 3000.000 0.000 1.208
18 300.00 1200.00 162 509 399 2.010 2000.000 0.000 2.010 3000.000 0.000 1.208
19 316.67 1200.00 158 521 436 2.010 2000.000 0.000 2.010 3000.000 0.000 1.208
20 333.33 1200.00 155 583 427 2.010 2000.000 0.000 2.010 3000.000 0.000 1.208
21 350.00 1200.00 155 524 417 2.010 2000.000 0.000 2.010 3000.000 0.000 1.208
22 366.67 1200.00 149 509 390 2.010 2000.000 0.000 2.010 3000.000 0.000 1.208
23 383.33 1200.00 163 467 401 2.010 2000.000 0.000 2.010 3000.000 0.000 1.208
24 400.00 1200.00 138 525 423 2.010 2000.000 0.000 2.010 3000.000 0.000 1.208
25 416.67 1200.00 132 495 411 2.010 2000.000 0.000 2.010 3000.000 0.000 1.208
26 433.33 1200.00 115 515 411 2.010 2000.000 0.000 2.010 3000.000 0.000 1.208
27 450.00 1200.00 154 521 461 2.010 2000.000 0.000 2.010 3000.000 0.000 1.208
28 466.67 1200.00 146 548 477 2.010 2000.000 0.000 2.010 3000.000 0.000 1.208
29 483.33 1200.00 159 522 413 2.010 2000.000 0.000 2.010 3000.000 0.000 1.208
30 500.00 1200.00 168 522 450 2.010 2000.000 0.000 2.010 3000.000 0.000 1.208
31 516.67 1200.00 138 530 418 2.010 2000.000 0.000 2.010 3000.000 0.000 1.208
32 533.33 1200.00 169 527 425 2.010 2000.000 0.000 2.010 3000.000 0.000 1.208
33 550.00 1200.00 169 574 422 2.010 2000.000 0.000 2.010 3000.000 0.000 1.208
34 566.67 1200.00 164 511 429 2.010 2000.000 0.000 2.010 3000.000 0.000 1.208
35 583.33 1200.00 165 531 420 2.010 2000.000 0.000 2.010 3000.000 0.000 1.208
36 600.00 1200.00 156 522 439 2.010 2000.000 0.000 2.010 3000.000 0.000 1.208
37 616.67 1200.00 151 445 410 2.010 2000.000 0.000 2.010 3000.000 0.000 1.208
38 633.33 1200.00 163 440 412 2.010 2000.000 0.000 2.010 3000.000 0.000 1.208
39 650.00 1200.00 161 486 424 2.010 2000.000 0.000 2.010 3000.000 0.000 1.208
40 666.67 1200.00 167 470 380 2.010 2000.000 0.000 2.010 3000.000 0.000 1.208
41 683.33 1200.00 164 460 377 2.010 2000.000 0.000 2.010 3000.000 0.000 1.208
42 700.00 1200.00 180 483 367 2.010 2000.000 0.000 2.010 3000.000 0.000 1.208
43 716.67 1200.00 148 458 395 2.010 2000.000 0.000 2.010 3000.000 0.000 1.208
44 733.33 1200.00 162 444 392 2.010 2000.000 0.000 2.010 3000.000 0.000 1.208
45 750.00 1200.00 154 442 413 2.010 2000.000 0.000 2.010 3000.000 0.000 1.208
46 766.67 1200.00 149 497 445 2.010 2000.000 0.000 2.010 3000.000 0.000 1.208
47 783.33 1200.00 138 540 429 2.010 2000.000 0.000 2.010 3000.000 0.000 1.208
48 800.00 1200.00 166 489 458 2.010 2000.000 0.000 2.010 3000.000 0.000 1.208
49 816.67 1200.00 147 468 481 2.010 2000.000 0.000 2.010 3000.000 0.000 1.208
50 833.34 1200.00 150 504 478 2.010 2000.000 0.000 2.010 3000.000 0.000 1.208
51 850.00 1200.00 156 553 458 2.010 2000.000 0.000 2.010 3000.000 0.000 1.208
52 866.67 1200.00 149 586 417 2.010 2000.000 0.000 2.010 3000.000 0.000 1.208
53 883.34 1200.00 183 579 443 2.010 2000.000 0.000 2.010 3000.000 0.000 1.208
54 900.00 1200.00 137 643 457 2.010 2000.000 0.000 2.010 3000.000 0.000 1.208
55 916.67 1200.00 155 588 426 2.010 2000.000 0.000 2.010 3000.000 0.000 1.208
56 933.34 1200.00 158 586 461 2.010 2000.000 0.000 2.010 3000.000 0.000 1.208
57 950.00 1200.00 154 533 429 2.010 2000.000 0.000 2.010 3000.000 0.000 1.208
58 966.67 1200.00 156 499 414 2.010 2000.000 0.000 2.010 3000.000 0.000 1.208
59 983.34 1200.00 152 485 358 2.010 2000.000 0.000 2.010 3000.000 0.000 1.208
