# BinNR microsec tot-time (s)  O-Beam AUX Ampl_1(V) f_1(Hz) phase_1(deg) Ampl_2(V) f_2(Hz) phase_2(deg) chi(pos)
0 0.00 1500.00 98 284 0.740 10000.000 0.000 0.610 15000.000 0.000 -1.494
1 3.00 1500.00 176 570 0.740 10000.000 0.000 0.610 15000.000 0.000 -1.494
2 6.00 1500.00 199 627 0.740 10000.000 0.000 0.610 15000.000 0.000 -1.494
3 9.00 1500.00 191 585 0.740 10000.000 0.000 0.610 15000.000 0.000 -1.494
4 12.00 1500.00 167 625 0.740 10000.000 0.000 0.610 15000.000 0.000 -1.494
5 15.00 1500.00 173 554 0.740 10000.000 0.000 0.610 15000.000 0.000 -1.494
6 18.00 1500.00 162 532 0.740 10000.000 0.000 0.610 15000.000 0.000 -1.494
7 21.00 1500.00 160 591 0.740 10000.000 0.000 0.610 15000.000 0.000 -1.494
8 24.00 1500.00 190 535 0.740 10000.000 0.000 0.610 15000.000 0.000 -1.494
9 27.00 1500.00 140 486 0.740 10000.000 0.000 0.610 15000.000 0.000 -1.494
10 30.00 1500.00 152 494 0.740 10000.000 0.000 0.610 15000.000 0.000 -1.494
11 33.00 1500.00 143 468 0.740 10000.000 0.000 0.610 15000.000 0.000 -1.494
12 36.00 1500.00 157 489 0.740 10000.000 0.000 0.610 15000.000 0.000 -1.494
13 39.00 1500.00 137 509 0.740 10000.000 0.000 0.610 15000.000 0.000 -1.494
14 42.00 1500.00 153 505 0.740 10000.000 0.000 0.610 15000.000 0.000 -1.494
15 45.00 1500.00 139 513 0.740 10000.000 0.000 0.610 15000.000 0.000 -1.494
16 48.00 1500.00 153 541 0.740 10000.000 0.000 0.610 15000.000 0.000 -1.494
17 51.00 1500.00 157 585 0.740 10000.000 0.000 0.610 15000.000 0.000 -1.494
18 54.00 1500.00 175 622 0.740 10000.000 0.000 0.610 15000.000 0.000 -1.494
19 57.00 1500.00 170 595 0.740 10000.000 0.000 0.610 15000.000 0.000 -1.494
20 60.00 1500.00 160 537 0.740 10000.000 0.000 0.610 15000.000 0.000 -1.494
21 63.00 1500.00 168 552 0.740 10000.000 0.000 0.610 15000.000 0.000 -1.494
22 66.00 1500.00 176 476 0.740 10000.000 0.000 0.610 15000.000 0.000 -1.494
23 69.00 1500.00 180 521 0.740 10000.000 0.000 0.610 15000.000 0.000 -1.494
24 72.00 1500.00 204 481 0.740 10000.000 0.000 0.610 15000.000 0.000 -1.494
25 75.00 1500.00 210 452 0.740 10000.000 0.000 0.610 15000.000 0.000 -1.494
26 78.00 1500.00 200 419 0.740 10000.000 0.000 0.610 15000.000 0.000 -1.494
27 81.00 1500.00 195 419 0.740 10000.000 0.000 0.610 15000.000 0.000 -1.494
28 84.00 1500.00 196 396 0.740 10000.000 0.000 0.610 15000.000 0.000 -1.494
29 87.00 1500.00 214 378 0.740 10000.000 0.000 0.610 15000.000 0.000 -1.494
30 90.00 1500.00 188 389 0.740 10000.000 0.000 0.610 15000.000 0.000 -1.494
31 93.00 1500.00 187 428 0.740 10000.000 0.000 0.610 15000.000 0.000 -1.494
32 96.00 1500.00 201 355 0.740 10000.000 0.000 0.610 15000.000 0.000 -1.494
33 99.00 1500.00 193 407 0.740 10000.000 0.000 0.610 15000.000 0.000 -1.494
34 102.00 1500.00 167 448 0.740 10000.000 0.000 0.610 15000.000 0.000 -1.494
35 105.00 1500.00 178 482 0.740 10000.000 0.000 0.610 15000.000 0.000 -1.494
36 108.00 1500.00 164 481 0.740 10000.000 0.000 0.610 15000.000 0.000 -1.494
37 111.00 1500.00 153 504 0.740 10000.000 0.000 0.610 15000.000 0.000 -1.494
38 114.00 1500.00 153 504 0.740 10000.000 0.000 0.610 15000.000 0.000 -1.494
39 117.00 1500.00 148 521 0.740 10000.000 0.000 0.610 15000.000 0.000 -1.494
40 120.00 1500.00 144 563 0.740 10000.000 0.000 0.610 15000.000 0.000 -1.494
41 123.00 1500.00 149 580 0.740 10000.000 0.000 0.610 15000.000 0.000 -1.494
42 126.00 1500.00 156 509 0.740 10000.000 0.000 0.610 15000.000 0.000 -1.494
43 129.00 1500.00 127 556 0.740 10000.000 0.000 0.610 15000.000 0.000 -1.494
44 132.00 1500.00 159 523 0.740 10000.000 0.000 0.610 15000.000 0.000 -1.494
45 135.00 1500.00 157 542 0.740 10000.000 0.000 0.610 15000.000 0.000 -1.494
46 138.00 1500.00 158 552 0.740 10000.000 0.000 0.610 15000.000 0.000 -1.494
47 141.00 1500.00 146 502 0.740 10000.000 0.000 0.610 15000.000 0.000 -1.494
48 144.00 1500.00 169 525 0.740 10000.000 0.000 0.610 15000.000 0.000 -1.494
49 147.00 1500.00 156 501 0.740 10000.000 0.000 0.610 15000.000 0.000 -1.494
50 150.00 1500.00 163 494 0.740 10000.000 0.000 0.610 15000.000 0.000 -1.494
51 153.00 1500.00 185 543 0.740 10000.000 0.000 0.610 15000.000 0.000 -1.494
52 156.00 1500.00 176 506 0.740 10000.000 0.000 0.610 15000.000 0.000 -1.494
53 159.00 1500.00 170 531 0.740 10000.000 0.000 0.610 15000.000 0.000 -1.494
54 162.00 1500.00 183 560 0.740 10000.000 0.000 0.610 15000.000 0.000 -1.494
55 165.00 1500.00 190 540 0.740 10000.000 0.000 0.610 15000.000 0.000 -1.494
56 168.00 1500.00 191 524 0.740 10000.000 0.000 0.610 15000.000 0.000 -1.494
57 171.00 1500.00 161 555 0.740 10000.000 0.000 0.610 15000.000 0.000 -1.494
58 174.00 1500.00 181 546 0.740 10000.000 0.000 0.610 15000.000 0.000 -1.494
59 177.00 1500.00 202 528 0.740 10000.000 0.000 0.610 15000.000 0.000 -1.494
60 180.00 1500.00 188 540 0.740 10000.000 0.000 0.610 15000.000 0.000 -1.494
61 183.00 1500.00 190 526 0.740 10000.000 0.000 0.610 15000.000 0.000 -1.494
62 186.00 1500.00 171 524 0.740 10000.000 0.000 0.610 15000.000 0.000 -1.494
63 189.00 1500.00 143 455 0.740 10000.000 0.000 0.610 15000.000 0.000 -1.494
64 192.00 1500.00 184 430 0.740 10000.000 0.000 0.610 15000.000 0.000 -1.494
65 195.00 1500.00 145 456 0.740 10000.000 0.000 0.610 15000.000 0.000 -1.494
66 198.00 1500.00 178 447 0.740 10000.000 0.000 0.610 15000.000 0.000 -1.494
67 201.00 1500.00 149 424 0.740 10000.000 0.000 0.610 15000.000 0.000 -1.494
68 204.00 1500.00 183 389 0.740 10000.000 0.000 0.610 15000.000 0.000 -1.494
69 207.00 1500.00 177 401 0.740 10000.000 0.000 0.610 15000.000 0.000 -1.494
70 210.00 1500.00 174 367 0.740 10000.000 0.000 0.610 15000.000 0.000 -1.494
71 213.00 1500.00 174 374 0.740 10000.000 0.000 0.610 15000.000 0.000 -1.494
72 216.00 1500.00 181 392 0.740 10000.000 0.000 0.610 15000.000 0.000 -1.494
73 219.00 1500.00 159 418 0.740 10000.000 0.000 0.610 15000.000 0.000 -1.494
74 222.00 1500.00 185 410 0.740 10000.000 0.000 0.610 15000.000 0.000 -1.494
75 225.00 1500.00 188 501 0.740 10000.000 0.000 0.610 15000.000 0.000 -1.494
76 228.00 1500.00 165 492 0.740 10000.000 0.000 0.610 15000.000 0.000 -1.494
77 231.00 1500.00 158 522 0.740 10000.000 0.000 0.610 15000.000 0.000 -1.494
78 234.00 1500.00 157 554 0.740 10000.000 0.000 0.610 15000.000 0.000 -1.494
79 237.00 1500.00 127 591 0.740 10000.000 0.000 0.610 15000.000 0.000 -1.494
80 240.00 1500.00 125 573 0.740 10000.000 0.000 0.610 15000.000 0.000 -1.494
81 243.00 1500.00 137 637 0.740 10000.000 0.000 0.610 15000.000 0.000 -1.494
82 246.00 1500.00 148 590 0.740 10000.000 0.000 0.610 15000.000 0.000 -1.494
83 249.00 1500.00 134 594 0.740 10000.000 0.000 0.610 15000.000 0.000 -1.494
84 252.00 1500.00 157 629 0.740 10000.000 0.000 0.610 15000.000 0.000 -1.494
85 255.00 1500.00 146 603 0.740 10000.000 0.000 0.610 15000.000 0.000 -1.494
86 258.00 1500.00 141 586 0.740 10000.000 0.000 0.610 15000.000 0.000 -1.494
87 261.00 1500.00 153 559 0.740 10000.000 0.000 0.610 15000.000 0.000 -1.494
88 264.00 1500.00 162 552 0.740 10000.000 0.000 0.610 15000.000 0.000 -1.494
89 267.00 1500.00 193 521 0.740 10000.000 0.000 0.610 15000.000 0.000 -1.494
90 270.00 1500.00 189 472 0.740 10000.000 0.000 0.610 15000.000 0.000 -1.494
91 273.00 1500.00 168 481 0.740 10000.000 0.000 0.610 15000.000 0.000 -1.494
92 276.00 1500.00 195 461 0.740 10000.000 0.000 0.610 15000.000 0.000 -1.494
93 279.00 1500.00 179 398 0.740 10000.000 0.000 0.610 15000.000 0.000 -1.494
94 282.00 1500.00 204 378 0.740 10000.000 0.000 0.610 15000.000 0.000 -1.494
95 285.00 1500.00 163 352 0.740 10000.000 0.000 0.610 15000.000 0.000 -1.494
96 288.00 1500.00 207 371 0.740 10000.000 0.000 0.610 15000.000 0.000 -1.494
97 291.00 1500.00 187 364 0.740 10000.000 0.000 0.610 15000.000 0.000 -1.494
98 294.00 1500.00 169 413 0.740 10000.000 0.000 0.610 15000.000 0.000 -1.494
99 297.00 1500.00 169 410 0.740 10000.000 0.000 0.610 15000.000 0.000 -1.494
100 300.00 1500.00 168 424 0.740 10000.000 0.000 0.610 15000.000 0.000 -1.494
101 303.00 1500.00 179 439 0.740 10000.000 0.000 0.610 15000.000 0.000 -1.494
102 306.00 1500.00 209 485 0.740 10000.000 0.000 0.610 15000.000 0.000 -1.494
103 309.00 1500.00 172 553 0.740 10000.000 0.000 0.610 15000.000 0.000 -1.494
104 312.00 1500.00 171 483 0.740 10000.000 0.000 0.610 15000.000 0.000 -1.494
105 315.00 1500.00 178 502 0.740 10000.000 0.000 0.610 15000.000 0.000 -1.494
106 318.00 1500.00 192 577 0.740 10000.000 0.000 0.610 15000.000 0.000 -1.494
107 321.00 1500.00 198 554 0.740 10000.000 0.000 0.610 15000.000 0.000 -1.494
108 324.00 1500.00 174 528 0.740 10000.000 0.000 0.610 15000.000 0.000 -1.494
109 327.00 1500.00 188 552 0.740 10000.000 0.000 0.610 15000.000 0.000 -1.494
110 330.00 1500.00 185 542 0.740 10000.000 0.000 0.610 15000.000 0.000 -1.494
111 333.00 1500.00 183 569 0.740 10000.000 0.000 0.610 15000.000 0.000 -1.494
112 336.00 1500.00 177 527 0.740 10000.000 0.000 0.610 15000.000 0.000 -1.494
113 339.00 1500.00 175 500 0.740 10000.000 0.000 0.610 15000.000 0.000 -1.494
114 342.00 1500.00 156 501 0.740 10000.000 0.000 0.610 15000.000 0.000 -1.494
115 345.00 1500.00 148 518 0.740 10000.000 0.000 0.610 15000.000 0.000 -1.494
116 348.00 1500.00 162 523 0.740 10000.000 0.000 0.610 15000.000 0.000 -1.494
117 351.00 1500.00 145 485 0.740 10000.000 0.000 0.610 15000.000 0.000 -1.494
118 354.00 1500.00 148 552 0.740 10000.000 0.000 0.610 15000.000 0.000 -1.494
119 357.00 1500.00 142 580 0.740 10000.000 0.000 0.610 15000.000 0.000 -1.494
120 360.00 1500.00 156 531 0.740 10000.000 0.000 0.610 15000.000 0.000 -1.494
121 363.00 1500.00 150 536 0.740 10000.000 0.000 0.610 15000.000 0.000 -1.494
122 366.00 1500.00 148 576 0.740 10000.000 0.000 0.610 15000.000 0.000 -1.494
123 369.00 1500.00 176 513 0.740 10000.000 0.000 0.610 15000.000 0.000 -1.494
124 372.00 1500.00 159 528 0.740 10000.000 0.000 0.610 15000.000 0.000 -1.494
125 375.00 1500.00 154 531 0.740 10000.000 0.000 0.610 15000.000 0.000 -1.494
126 378.00 1500.00 156 519 0.740 10000.000 0.000 0.610 15000.000 0.000 -1.494
127 381.00 1500.00 180 513 0.740 10000.000 0.000 0.610 15000.000 0.000 -1.494
128 384.00 1500.00 168 546 0.740 10000.000 0.000 0.610 15000.000 0.000 -1.494
129 387.00 1500.00 184 496 0.740 10000.000 0.000 0.610 15000.000 0.000 -1.494
130 390.00 1500.00 172 466 0.740 10000.000 0.000 0.610 15000.000 0.000 -1.494
131 393.00 1500.00 166 459 0.740 10000.000 0.000 0.610 15000.000 0.000 -1.494
132 396.00 1500.00 193 429 0.740 10000.000 0.000 0.610 15000.000 0.000 -1.494
133 399.00 1500.00 173 389 0.740 10000.000 0.000 0.610 15000.000 0.000 -1.494
134 402.00 1500.00 162 373 0.740 10000.000 0.000 0.610 15000.000 0.000 -1.494
135 405.00 1500.00 173 386 0.740 10000.000 0.000 0.610 15000.000 0.000 -1.494
136 408.00 1500.00 179 370 0.740 10000.000 0.000 0.610 15000.000 0.000 -1.494
137 411.00 1500.00 178 372 0.740 10000.000 0.000 0.610 15000.000 0.000 -1.494
138 414.00 1500.00 175 400 0.740 10000.000 0.000 0.610 15000.000 0.000 -1.494
139 417.00 1500.00 180 383 0.740 10000.000 0.000 0.610 15000.000 0.000 -1.494
140 420.00 1500.00 188 423 0.740 10000.000 0.000 0.610 15000.000 0.000 -1.494
141 423.00 1500.00 169 435 0.740 10000.000 0.000 0.610 15000.000 0.000 -1.494
142 426.00 1500.00 181 453 0.740 10000.000 0.000 0.610 15000.000 0.000 -1.494
143 429.00 1500.00 151 504 0.740 10000.000 0.000 0.610 15000.000 0.000 -1.494
144 432.00 1500.00 183 571 0.740 10000.000 0.000 0.610 15000.000 0.000 -1.494
