# BinNR microsec tot-time (s)  O-Beam AUX Ampl(V) f(Hz) phase(deg) chi(pos)
0 0.00 1500.00 105 285 1.000 10000.000 0.000 -0.681
1 3.00 1500.00 228 563 1.000 10000.000 0.000 -0.681
2 6.00 1500.00 214 545 1.000 10000.000 0.000 -0.681
3 9.00 1500.00 218 587 1.000 10000.000 0.000 -0.681
4 12.00 1500.00 234 558 1.000 10000.000 0.000 -0.681
5 15.00 1500.00 195 542 1.000 10000.000 0.000 -0.681
6 18.00 1500.00 216 524 1.000 10000.000 0.000 -0.681
7 21.00 1500.00 217 498 1.000 10000.000 0.000 -0.681
8 24.00 1500.00 202 495 1.000 10000.000 0.000 -0.681
9 27.00 1500.00 193 473 1.000 10000.000 0.000 -0.681
10 30.00 1500.00 192 430 1.000 10000.000 0.000 -0.681
11 33.00 1500.00 187 423 1.000 10000.000 0.000 -0.681
12 36.00 1500.00 187 447 1.000 10000.000 0.000 -0.681
13 39.00 1500.00 198 468 1.000 10000.000 0.000 -0.681
14 42.00 1500.00 198 477 1.000 10000.000 0.000 -0.681
15 45.00 1500.00 190 462 1.000 10000.000 0.000 -0.681
16 48.00 1500.00 187 433 1.000 10000.000 0.000 -0.681
17 51.00 1500.00 213 458 1.000 10000.000 0.000 -0.681
18 54.00 1500.00 197 410 1.000 10000.000 0.000 -0.681
19 57.00 1500.00 174 478 1.000 10000.000 0.000 -0.681
20 60.00 1500.00 213 488 1.000 10000.000 0.000 -0.681
21 63.00 1500.00 221 481 1.000 10000.000 0.000 -0.681
22 66.00 1500.00 240 513 1.000 10000.000 0.000 -0.681
23 69.00 1500.00 202 513 1.000 10000.000 0.000 -0.681
24 72.00 1500.00 218 576 1.000 10000.000 0.000 -0.681
25 75.00 1500.00 238 526 1.000 10000.000 0.000 -0.681
26 78.00 1500.00 216 534 1.000 10000.000 0.000 -0.681
27 81.00 1500.00 236 558 1.000 10000.000 0.000 -0.681
28 84.00 1500.00 221 601 1.000 10000.000 0.000 -0.681
29 87.00 1500.00 217 574 1.000 10000.000 0.000 -0.681
30 90.00 1500.00 196 595 1.000 10000.000 0.000 -0.681
31 93.00 1500.00 220 593 1.000 10000.000 0.000 -0.681
32 96.00 1500.00 227 672 1.000 10000.000 0.000 -0.681
33 99.00 1500.00 218 569 1.000 10000.000 0.000 -0.681
34 102.00 1500.00 233 606 1.000 10000.000 0.000 -0.681
35 105.00 1500.00 215 583 1.000 10000.000 0.000 -0.681
36 108.00 1500.00 213 582 1.000 10000.000 0.000 -0.681
37 111.00 1500.00 207 558 1.000 10000.000 0.000 -0.681
38 114.00 1500.00 223 619 1.000 10000.000 0.000 -0.681
39 117.00 1500.00 200 539 1.000 10000.000 0.000 -0.681
40 120.00 1500.00 220 506 1.000 10000.000 0.000 -0.681
41 123.00 1500.00 216 505 1.000 10000.000 0.000 -0.681
42 126.00 1500.00 205 493 1.000 10000.000 0.000 -0.681
43 129.00 1500.00 211 485 1.000 10000.000 0.000 -0.681
44 132.00 1500.00 213 465 1.000 10000.000 0.000 -0.681
45 135.00 1500.00 205 461 1.000 10000.000 0.000 -0.681
46 138.00 1500.00 183 438 1.000 10000.000 0.000 -0.681
47 141.00 1500.00 182 446 1.000 10000.000 0.000 -0.681
48 144.00 1500.00 175 459 1.000 10000.000 0.000 -0.681
49 147.00 1500.00 205 400 1.000 10000.000 0.000 -0.681
50 150.00 1500.00 181 395 1.000 10000.000 0.000 -0.681
51 153.00 1500.00 192 438 1.000 10000.000 0.000 -0.681
52 156.00 1500.00 177 451 1.000 10000.000 0.000 -0.681
53 159.00 1500.00 184 462 1.000 10000.000 0.000 -0.681
54 162.00 1500.00 219 444 1.000 10000.000 0.000 -0.681
55 165.00 1500.00 210 456 1.000 10000.000 0.000 -0.681
56 168.00 1500.00 188 528 1.000 10000.000 0.000 -0.681
57 171.00 1500.00 216 500 1.000 10000.000 0.000 -0.681
58 174.00 1500.00 240 516 1.000 10000.000 0.000 -0.681
59 177.00 1500.00 225 532 1.000 10000.000 0.000 -0.681
60 180.00 1500.00 230 569 1.000 10000.000 0.000 -0.681
61 183.00 1500.00 226 580 1.000 10000.000 0.000 -0.681
62 186.00 1500.00 222 617 1.000 10000.000 0.000 -0.681
63 189.00 1500.00 214 572 1.000 10000.000 0.000 -0.681
64 192.00 1500.00 260 644 1.000 10000.000 0.000 -0.681
65 195.00 1500.00 227 561 1.000 10000.000 0.000 -0.681
66 198.00 1500.00 229 604 1.000 10000.000 0.000 -0.681
67 201.00 1500.00 227 596 1.000 10000.000 0.000 -0.681
68 204.00 1500.00 222 596 1.000 10000.000 0.000 -0.681
69 207.00 1500.00 231 566 1.000 10000.000 0.000 -0.681
70 210.00 1500.00 219 572 1.000 10000.000 0.000 -0.681
71 213.00 1500.00 227 545 1.000 10000.000 0.000 -0.681
72 216.00 1500.00 230 550 1.000 10000.000 0.000 -0.681
73 219.00 1500.00 214 536 1.000 10000.000 0.000 -0.681
74 222.00 1500.00 232 551 1.000 10000.000 0.000 -0.681
75 225.00 1500.00 213 506 1.000 10000.000 0.000 -0.681
76 228.00 1500.00 197 488 1.000 10000.000 0.000 -0.681
77 231.00 1500.00 176 457 1.000 10000.000 0.000 -0.681
78 234.00 1500.00 182 465 1.000 10000.000 0.000 -0.681
79 237.00 1500.00 211 452 1.000 10000.000 0.000 -0.681
80 240.00 1500.00 180 459 1.000 10000.000 0.000 -0.681
81 243.00 1500.00 199 453 1.000 10000.000 0.000 -0.681
82 246.00 1500.00 187 432 1.000 10000.000 0.000 -0.681
83 249.00 1500.00 196 453 1.000 10000.000 0.000 -0.681
84 252.00 1500.00 206 441 1.000 10000.000 0.000 -0.681
85 255.00 1500.00 199 443 1.000 10000.000 0.000 -0.681
86 258.00 1500.00 190 423 1.000 10000.000 0.000 -0.681
87 261.00 1500.00 201 476 1.000 10000.000 0.000 -0.681
88 264.00 1500.00 216 499 1.000 10000.000 0.000 -0.681
89 267.00 1500.00 224 521 1.000 10000.000 0.000 -0.681
90 270.00 1500.00 202 509 1.000 10000.000 0.000 -0.681
91 273.00 1500.00 237 502 1.000 10000.000 0.000 -0.681
92 276.00 1500.00 244 532 1.000 10000.000 0.000 -0.681
93 279.00 1500.00 226 565 1.000 10000.000 0.000 -0.681
94 282.00 1500.00 208 583 1.000 10000.000 0.000 -0.681
95 285.00 1500.00 221 547 1.000 10000.000 0.000 -0.681
96 288.00 1500.00 221 626 1.000 10000.000 0.000 -0.681
97 291.00 1500.00 235 578 1.000 10000.000 0.000 -0.681
98 294.00 1500.00 254 636 1.000 10000.000 0.000 -0.681
99 297.00 1500.00 222 591 1.000 10000.000 0.000 -0.681
100 300.00 1500.00 229 582 1.000 10000.000 0.000 -0.681
101 303.00 1500.00 217 562 1.000 10000.000 0.000 -0.681
102 306.00 1500.00 209 581 1.000 10000.000 0.000 -0.681
103 309.00 1500.00 228 543 1.000 10000.000 0.000 -0.681
104 312.00 1500.00 237 517 1.000 10000.000 0.000 -0.681
105 315.00 1500.00 226 546 1.000 10000.000 0.000 -0.681
106 318.00 1500.00 204 577 1.000 10000.000 0.000 -0.681
107 321.00 1500.00 226 525 1.000 10000.000 0.000 -0.681
108 324.00 1500.00 197 561 1.000 10000.000 0.000 -0.681
109 327.00 1500.00 210 478 1.000 10000.000 0.000 -0.681
110 330.00 1500.00 211 453 1.000 10000.000 0.000 -0.681
111 333.00 1500.00 181 475 1.000 10000.000 0.000 -0.681
112 336.00 1500.00 201 443 1.000 10000.000 0.000 -0.681
113 339.00 1500.00 182 408 1.000 10000.000 0.000 -0.681
114 342.00 1500.00 192 456 1.000 10000.000 0.000 -0.681
115 345.00 1500.00 172 385 1.000 10000.000 0.000 -0.681
116 348.00 1500.00 180 438 1.000 10000.000 0.000 -0.681
117 351.00 1500.00 200 465 1.000 10000.000 0.000 -0.681
118 354.00 1500.00 211 446 1.000 10000.000 0.000 -0.681
119 357.00 1500.00 200 406 1.000 10000.000 0.000 -0.681
120 360.00 1500.00 208 441 1.000 10000.000 0.000 -0.681
121 363.00 1500.00 189 493 1.000 10000.000 0.000 -0.681
122 366.00 1500.00 190 481 1.000 10000.000 0.000 -0.681
123 369.00 1500.00 217 526 1.000 10000.000 0.000 -0.681
124 372.00 1500.00 200 498 1.000 10000.000 0.000 -0.681
125 375.00 1500.00 215 494 1.000 10000.000 0.000 -0.681
126 378.00 1500.00 233 515 1.000 10000.000 0.000 -0.681
127 381.00 1500.00 221 519 1.000 10000.000 0.000 -0.681
128 384.00 1500.00 210 574 1.000 10000.000 0.000 -0.681
129 387.00 1500.00 214 577 1.000 10000.000 0.000 -0.681
130 390.00 1500.00 213 634 1.000 10000.000 0.000 -0.681
131 393.00 1500.00 236 593 1.000 10000.000 0.000 -0.681
132 396.00 1500.00 234 619 1.000 10000.000 0.000 -0.681
133 399.00 1500.00 231 601 1.000 10000.000 0.000 -0.681
134 402.00 1500.00 226 585 1.000 10000.000 0.000 -0.681
