# BinNR microsec tot-time (s)  O-Beam AUX Ampl(V) f(Hz) phase(deg) chi(pos)
0 0.00 1500.00 54 109 1.000 10000.000 0.000 0.000
1 3.00 1500.00 111 229 1.000 10000.000 0.000 0.000
2 6.00 1500.00 101 238 1.000 10000.000 0.000 0.000
3 9.00 1500.00 122 221 1.000 10000.000 0.000 0.000
4 12.00 1500.00 102 224 1.000 10000.000 0.000 0.000
5 15.00 1500.00 107 247 1.000 10000.000 0.000 0.000
6 18.00 1500.00 119 239 1.000 10000.000 0.000 0.000
7 21.00 1500.00 125 250 1.000 10000.000 0.000 0.000
8 24.00 1500.00 139 276 1.000 10000.000 0.000 0.000
9 27.00 1500.00 101 238 1.000 10000.000 0.000 0.000
10 30.00 1500.00 118 265 1.000 10000.000 0.000 0.000
11 33.00 1500.00 115 247 1.000 10000.000 0.000 0.000
12 36.00 1500.00 107 252 1.000 10000.000 0.000 0.000
13 39.00 1500.00 104 289 1.000 10000.000 0.000 0.000
14 42.00 1500.00 124 269 1.000 10000.000 0.000 0.000
15 45.00 1500.00 110 273 1.000 10000.000 0.000 0.000
16 48.00 1500.00 108 242 1.000 10000.000 0.000 0.000
17 51.00 1500.00 118 236 1.000 10000.000 0.000 0.000
18 54.00 1500.00 121 272 1.000 10000.000 0.000 0.000
19 57.00 1500.00 114 272 1.000 10000.000 0.000 0.000
20 60.00 1500.00 93 262 1.000 10000.000 0.000 0.000
21 63.00 1500.00 119 249 1.000 10000.000 0.000 0.000
22 66.00 1500.00 99 270 1.000 10000.000 0.000 0.000
23 69.00 1500.00 120 243 1.000 10000.000 0.000 0.000
24 72.00 1500.00 94 253 1.000 10000.000 0.000 0.000
25 75.00 1500.00 100 225 1.000 10000.000 0.000 0.000
26 78.00 1500.00 98 236 1.000 10000.000 0.000 0.000
27 81.00 1500.00 92 228 1.000 10000.000 0.000 0.000
28 84.00 1500.00 99 242 1.000 10000.000 0.000 0.000
29 87.00 1500.00 102 227 1.000 10000.000 0.000 0.000
30 90.00 1500.00 102 249 1.000 10000.000 0.000 0.000
31 93.00 1500.00 114 216 1.000 10000.000 0.000 0.000
32 96.00 1500.00 137 209 1.000 10000.000 0.000 0.000
33 99.00 1500.00 79 236 1.000 10000.000 0.000 0.000
34 102.00 1500.00 113 241 1.000 10000.000 0.000 0.000
35 105.00 1500.00 122 198 1.000 10000.000 0.000 0.000
36 108.00 1500.00 115 225 1.000 10000.000 0.000 0.000
37 111.00 1500.00 110 221 1.000 10000.000 0.000 0.000
38 114.00 1500.00 108 222 1.000 10000.000 0.000 0.000
39 117.00 1500.00 113 236 1.000 10000.000 0.000 0.000
40 120.00 1500.00 97 229 1.000 10000.000 0.000 0.000
41 123.00 1500.00 125 218 1.000 10000.000 0.000 0.000
42 126.00 1500.00 97 239 1.000 10000.000 0.000 0.000
43 129.00 1500.00 92 253 1.000 10000.000 0.000 0.000
44 132.00 1500.00 129 248 1.000 10000.000 0.000 0.000
45 135.00 1500.00 113 255 1.000 10000.000 0.000 0.000
46 138.00 1500.00 129 251 1.000 10000.000 0.000 0.000
47 141.00 1500.00 119 262 1.000 10000.000 0.000 0.000
48 144.00 1500.00 116 280 1.000 10000.000 0.000 0.000
49 147.00 1500.00 118 275 1.000 10000.000 0.000 0.000
50 150.00 1500.00 123 287 1.000 10000.000 0.000 0.000
51 153.00 1500.00 115 306 1.000 10000.000 0.000 0.000
52 156.00 1500.00 100 288 1.000 10000.000 0.000 0.000
53 159.00 1500.00 112 290 1.000 10000.000 0.000 0.000
54 162.00 1500.00 107 238 1.000 10000.000 0.000 0.000
55 165.00 1500.00 105 265 1.000 10000.000 0.000 0.000
56 168.00 1500.00 101 251 1.000 10000.000 0.000 0.000
57 171.00 1500.00 102 258 1.000 10000.000 0.000 0.000
58 174.00 1500.00 117 247 1.000 10000.000 0.000 0.000
59 177.00 1500.00 120 241 1.000 10000.000 0.000 0.000
60 180.00 1500.00 101 221 1.000 10000.000 0.000 0.000
61 183.00 1500.00 120 257 1.000 10000.000 0.000 0.000
62 186.00 1500.00 128 246 1.000 10000.000 0.000 0.000
63 189.00 1500.00 87 231 1.000 10000.000 0.000 0.000
64 192.00 1500.00 93 246 1.000 10000.000 0.000 0.000
65 195.00 1500.00 129 236 1.000 10000.000 0.000 0.000
66 198.00 1500.00 113 241 1.000 10000.000 0.000 0.000
67 201.00 1500.00 102 211 1.000 10000.000 0.000 0.000
68 204.00 1500.00 114 256 1.000 10000.000 0.000 0.000
69 207.00 1500.00 103 215 1.000 10000.000 0.000 0.000
70 210.00 1500.00 124 226 1.000 10000.000 0.000 0.000
71 213.00 1500.00 117 249 1.000 10000.000 0.000 0.000
72 216.00 1500.00 111 212 1.000 10000.000 0.000 0.000
73 219.00 1500.00 104 230 1.000 10000.000 0.000 0.000
74 222.00 1500.00 100 235 1.000 10000.000 0.000 0.000
75 225.00 1500.00 121 241 1.000 10000.000 0.000 0.000
76 228.00 1500.00 118 236 1.000 10000.000 0.000 0.000
77 231.00 1500.00 109 270 1.000 10000.000 0.000 0.000
78 234.00 1500.00 116 290 1.000 10000.000 0.000 0.000
79 237.00 1500.00 111 248 1.000 10000.000 0.000 0.000
80 240.00 1500.00 108 272 1.000 10000.000 0.000 0.000
81 243.00 1500.00 97 249 1.000 10000.000 0.000 0.000
82 246.00 1500.00 120 254 1.000 10000.000 0.000 0.000
83 249.00 1500.00 124 296 1.000 10000.000 0.000 0.000
84 252.00 1500.00 110 241 1.000 10000.000 0.000 0.000
85 255.00 1500.00 126 278 1.000 10000.000 0.000 0.000
86 258.00 1500.00 121 256 1.000 10000.000 0.000 0.000
87 261.00 1500.00 113 238 1.000 10000.000 0.000 0.000
88 264.00 1500.00 125 251 1.000 10000.000 0.000 0.000
89 267.00 1500.00 106 240 1.000 10000.000 0.000 0.000
90 270.00 1500.00 102 226 1.000 10000.000 0.000 0.000
91 273.00 1500.00 97 243 1.000 10000.000 0.000 0.000
92 276.00 1500.00 118 213 1.000 10000.000 0.000 0.000
93 279.00 1500.00 106 228 1.000 10000.000 0.000 0.000
94 282.00 1500.00 100 214 1.000 10000.000 0.000 0.000
95 285.00 1500.00 97 237 1.000 10000.000 0.000 0.000
96 288.00 1500.00 96 250 1.000 10000.000 0.000 0.000
97 291.00 1500.00 112 216 1.000 10000.000 0.000 0.000
98 294.00 1500.00 110 214 1.000 10000.000 0.000 0.000
99 297.00 1500.00 111 251 1.000 10000.000 0.000 0.000
100 300.00 1500.00 105 238 1.000 10000.000 0.000 0.000
101 303.00 1500.00 96 224 1.000 10000.000 0.000 0.000
102 306.00 1500.00 108 193 1.000 10000.000 0.000 0.000
103 309.00 1500.00 130 210 1.000 10000.000 0.000 0.000
104 312.00 1500.00 128 251 1.000 10000.000 0.000 0.000
105 315.00 1500.00 125 247 1.000 10000.000 0.000 0.000
106 318.00 1500.00 116 233 1.000 10000.000 0.000 0.000
107 321.00 1500.00 109 228 1.000 10000.000 0.000 0.000
108 324.00 1500.00 113 238 1.000 10000.000 0.000 0.000
109 327.00 1500.00 112 260 1.000 10000.000 0.000 0.000
110 330.00 1500.00 119 284 1.000 10000.000 0.000 0.000
111 333.00 1500.00 124 252 1.000 10000.000 0.000 0.000
112 336.00 1500.00 126 278 1.000 10000.000 0.000 0.000
113 339.00 1500.00 114 273 1.000 10000.000 0.000 0.000
114 342.00 1500.00 119 278 1.000 10000.000 0.000 0.000
115 345.00 1500.00 122 292 1.000 10000.000 0.000 0.000
116 348.00 1500.00 121 272 1.000 10000.000 0.000 0.000
117 351.00 1500.00 110 287 1.000 10000.000 0.000 0.000
118 354.00 1500.00 116 267 1.000 10000.000 0.000 0.000
119 357.00 1500.00 118 272 1.000 10000.000 0.000 0.000
120 360.00 1500.00 114 277 1.000 10000.000 0.000 0.000
121 363.00 1500.00 110 271 1.000 10000.000 0.000 0.000
122 366.00 1500.00 117 255 1.000 10000.000 0.000 0.000
123 369.00 1500.00 94 244 1.000 10000.000 0.000 0.000
124 372.00 1500.00 107 218 1.000 10000.000 0.000 0.000
125 375.00 1500.00 111 235 1.000 10000.000 0.000 0.000
126 378.00 1500.00 122 257 1.000 10000.000 0.000 0.000
127 381.00 1500.00 102 212 1.000 10000.000 0.000 0.000
128 384.00 1500.00 111 211 1.000 10000.000 0.000 0.000
129 387.00 1500.00 114 242 1.000 10000.000 0.000 0.000
130 390.00 1500.00 118 235 1.000 10000.000 0.000 0.000
131 393.00 1500.00 93 213 1.000 10000.000 0.000 0.000
132 396.00 1500.00 100 257 1.000 10000.000 0.000 0.000
133 399.00 1500.00 113 234 1.000 10000.000 0.000 0.000
134 402.00 1500.00 121 218 1.000 10000.000 0.000 0.000
