# BinNR microsec tot-time (s)  O-Beam AUX Ampl(V) f(Hz) phase(deg) chi(pos)
0 0.00 1500.00 90 261 1.000 10000.000 0.000 -1.494
1 3.00 1500.00 159 506 1.000 10000.000 0.000 -1.494
2 6.00 1500.00 164 531 1.000 10000.000 0.000 -1.494
3 9.00 1500.00 175 579 1.000 10000.000 0.000 -1.494
4 12.00 1500.00 221 608 1.000 10000.000 0.000 -1.494
5 15.00 1500.00 176 569 1.000 10000.000 0.000 -1.494
6 18.00 1500.00 191 579 1.000 10000.000 0.000 -1.494
7 21.00 1500.00 221 599 1.000 10000.000 0.000 -1.494
8 24.00 1500.00 221 630 1.000 10000.000 0.000 -1.494
9 27.00 1500.00 254 645 1.000 10000.000 0.000 -1.494
10 30.00 1500.00 211 647 1.000 10000.000 0.000 -1.494
11 33.00 1500.00 232 613 1.000 10000.000 0.000 -1.494
12 36.00 1500.00 227 663 1.000 10000.000 0.000 -1.494
13 39.00 1500.00 204 646 1.000 10000.000 0.000 -1.494
14 42.00 1500.00 203 625 1.000 10000.000 0.000 -1.494
15 45.00 1500.00 217 658 1.000 10000.000 0.000 -1.494
16 48.00 1500.00 233 693 1.000 10000.000 0.000 -1.494
17 51.00 1500.00 223 666 1.000 10000.000 0.000 -1.494
18 54.00 1500.00 205 648 1.000 10000.000 0.000 -1.494
19 57.00 1500.00 240 626 1.000 10000.000 0.000 -1.494
20 60.00 1500.00 234 678 1.000 10000.000 0.000 -1.494
21 63.00 1500.00 218 660 1.000 10000.000 0.000 -1.494
22 66.00 1500.00 197 623 1.000 10000.000 0.000 -1.494
23 69.00 1500.00 208 611 1.000 10000.000 0.000 -1.494
24 72.00 1500.00 189 591 1.000 10000.000 0.000 -1.494
25 75.00 1500.00 180 577 1.000 10000.000 0.000 -1.494
26 78.00 1500.00 185 588 1.000 10000.000 0.000 -1.494
27 81.00 1500.00 187 558 1.000 10000.000 0.000 -1.494
28 84.00 1500.00 165 560 1.000 10000.000 0.000 -1.494
29 87.00 1500.00 183 547 1.000 10000.000 0.000 -1.494
30 90.00 1500.00 181 517 1.000 10000.000 0.000 -1.494
31 93.00 1500.00 199 511 1.000 10000.000 0.000 -1.494
32 96.00 1500.00 185 521 1.000 10000.000 0.000 -1.494
33 99.00 1500.00 205 483 1.000 10000.000 0.000 -1.494
34 102.00 1500.00 175 506 1.000 10000.000 0.000 -1.494
35 105.00 1500.00 177 536 1.000 10000.000 0.000 -1.494
36 108.00 1500.00 200 569 1.000 10000.000 0.000 -1.494
37 111.00 1500.00 180 565 1.000 10000.000 0.000 -1.494
38 114.00 1500.00 196 550 1.000 10000.000 0.000 -1.494
39 117.00 1500.00 189 592 1.000 10000.000 0.000 -1.494
40 120.00 1500.00 220 560 1.000 10000.000 0.000 -1.494
41 123.00 1500.00 194 591 1.000 10000.000 0.000 -1.494
42 126.00 1500.00 188 591 1.000 10000.000 0.000 -1.494
43 129.00 1500.00 204 620 1.000 10000.000 0.000 -1.494
44 132.00 1500.00 196 636 1.000 10000.000 0.000 -1.494
45 135.00 1500.00 222 677 1.000 10000.000 0.000 -1.494
46 138.00 1500.00 233 639 1.000 10000.000 0.000 -1.494
47 141.00 1500.00 214 699 1.000 10000.000 0.000 -1.494
48 144.00 1500.00 221 671 1.000 10000.000 0.000 -1.494
49 147.00 1500.00 220 672 1.000 10000.000 0.000 -1.494
50 150.00 1500.00 215 653 1.000 10000.000 0.000 -1.494
51 153.00 1500.00 205 650 1.000 10000.000 0.000 -1.494
52 156.00 1500.00 230 665 1.000 10000.000 0.000 -1.494
53 159.00 1500.00 226 643 1.000 10000.000 0.000 -1.494
54 162.00 1500.00 231 685 1.000 10000.000 0.000 -1.494
55 165.00 1500.00 193 624 1.000 10000.000 0.000 -1.494
56 168.00 1500.00 182 650 1.000 10000.000 0.000 -1.494
57 171.00 1500.00 196 605 1.000 10000.000 0.000 -1.494
58 174.00 1500.00 179 641 1.000 10000.000 0.000 -1.494
59 177.00 1500.00 181 522 1.000 10000.000 0.000 -1.494
60 180.00 1500.00 211 531 1.000 10000.000 0.000 -1.494
61 183.00 1500.00 181 555 1.000 10000.000 0.000 -1.494
62 186.00 1500.00 192 540 1.000 10000.000 0.000 -1.494
63 189.00 1500.00 165 549 1.000 10000.000 0.000 -1.494
64 192.00 1500.00 177 536 1.000 10000.000 0.000 -1.494
65 195.00 1500.00 179 494 1.000 10000.000 0.000 -1.494
66 198.00 1500.00 161 498 1.000 10000.000 0.000 -1.494
67 201.00 1500.00 183 508 1.000 10000.000 0.000 -1.494
68 204.00 1500.00 182 514 1.000 10000.000 0.000 -1.494
69 207.00 1500.00 212 484 1.000 10000.000 0.000 -1.494
70 210.00 1500.00 183 539 1.000 10000.000 0.000 -1.494
71 213.00 1500.00 205 524 1.000 10000.000 0.000 -1.494
72 216.00 1500.00 201 556 1.000 10000.000 0.000 -1.494
73 219.00 1500.00 180 590 1.000 10000.000 0.000 -1.494
74 222.00 1500.00 219 610 1.000 10000.000 0.000 -1.494
75 225.00 1500.00 193 602 1.000 10000.000 0.000 -1.494
76 228.00 1500.00 207 604 1.000 10000.000 0.000 -1.494
77 231.00 1500.00 199 656 1.000 10000.000 0.000 -1.494
78 234.00 1500.00 210 658 1.000 10000.000 0.000 -1.494
79 237.00 1500.00 247 617 1.000 10000.000 0.000 -1.494
80 240.00 1500.00 216 664 1.000 10000.000 0.000 -1.494
81 243.00 1500.00 225 662 1.000 10000.000 0.000 -1.494
82 246.00 1500.00 220 684 1.000 10000.000 0.000 -1.494
83 249.00 1500.00 211 694 1.000 10000.000 0.000 -1.494
84 252.00 1500.00 203 707 1.000 10000.000 0.000 -1.494
85 255.00 1500.00 196 633 1.000 10000.000 0.000 -1.494
86 258.00 1500.00 205 663 1.000 10000.000 0.000 -1.494
87 261.00 1500.00 199 650 1.000 10000.000 0.000 -1.494
88 264.00 1500.00 223 592 1.000 10000.000 0.000 -1.494
89 267.00 1500.00 188 630 1.000 10000.000 0.000 -1.494
90 270.00 1500.00 198 604 1.000 10000.000 0.000 -1.494
91 273.00 1500.00 195 583 1.000 10000.000 0.000 -1.494
92 276.00 1500.00 211 593 1.000 10000.000 0.000 -1.494
93 279.00 1500.00 205 540 1.000 10000.000 0.000 -1.494
94 282.00 1500.00 190 559 1.000 10000.000 0.000 -1.494
95 285.00 1500.00 213 536 1.000 10000.000 0.000 -1.494
96 288.00 1500.00 206 519 1.000 10000.000 0.000 -1.494
97 291.00 1500.00 173 505 1.000 10000.000 0.000 -1.494
98 294.00 1500.00 168 533 1.000 10000.000 0.000 -1.494
99 297.00 1500.00 153 518 1.000 10000.000 0.000 -1.494
100 300.00 1500.00 185 528 1.000 10000.000 0.000 -1.494
101 303.00 1500.00 189 538 1.000 10000.000 0.000 -1.494
102 306.00 1500.00 188 519 1.000 10000.000 0.000 -1.494
103 309.00 1500.00 208 526 1.000 10000.000 0.000 -1.494
104 312.00 1500.00 200 532 1.000 10000.000 0.000 -1.494
105 315.00 1500.00 190 518 1.000 10000.000 0.000 -1.494
106 318.00 1500.00 192 544 1.000 10000.000 0.000 -1.494
107 321.00 1500.00 178 554 1.000 10000.000 0.000 -1.494
108 324.00 1500.00 203 647 1.000 10000.000 0.000 -1.494
109 327.00 1500.00 205 642 1.000 10000.000 0.000 -1.494
110 330.00 1500.00 204 615 1.000 10000.000 0.000 -1.494
111 333.00 1500.00 200 664 1.000 10000.000 0.000 -1.494
112 336.00 1500.00 214 682 1.000 10000.000 0.000 -1.494
113 339.00 1500.00 198 673 1.000 10000.000 0.000 -1.494
114 342.00 1500.00 199 676 1.000 10000.000 0.000 -1.494
115 345.00 1500.00 209 676 1.000 10000.000 0.000 -1.494
116 348.00 1500.00 228 606 1.000 10000.000 0.000 -1.494
117 351.00 1500.00 224 590 1.000 10000.000 0.000 -1.494
118 354.00 1500.00 221 639 1.000 10000.000 0.000 -1.494
119 357.00 1500.00 217 684 1.000 10000.000 0.000 -1.494
120 360.00 1500.00 216 603 1.000 10000.000 0.000 -1.494
121 363.00 1500.00 196 638 1.000 10000.000 0.000 -1.494
122 366.00 1500.00 233 633 1.000 10000.000 0.000 -1.494
123 369.00 1500.00 225 591 1.000 10000.000 0.000 -1.494
124 372.00 1500.00 195 577 1.000 10000.000 0.000 -1.494
125 375.00 1500.00 180 594 1.000 10000.000 0.000 -1.494
126 378.00 1500.00 193 579 1.000 10000.000 0.000 -1.494
127 381.00 1500.00 171 592 1.000 10000.000 0.000 -1.494
128 384.00 1500.00 196 561 1.000 10000.000 0.000 -1.494
129 387.00 1500.00 187 576 1.000 10000.000 0.000 -1.494
130 390.00 1500.00 200 533 1.000 10000.000 0.000 -1.494
131 393.00 1500.00 180 528 1.000 10000.000 0.000 -1.494
132 396.00 1500.00 170 487 1.000 10000.000 0.000 -1.494
133 399.00 1500.00 199 546 1.000 10000.000 0.000 -1.494
134 402.00 1500.00 171 505 1.000 10000.000 0.000 -1.494
