# BinNR microsec tot-time (s)  O-Beam AUX Ampl(V) f(Hz) phase(deg) chi(pos)
0 0.00 1500.00 77 170 1.000 10000.000 0.000 -0.330
1 3.00 1500.00 148 346 1.000 10000.000 0.000 -0.330
2 6.00 1500.00 170 323 1.000 10000.000 0.000 -0.330
3 9.00 1500.00 145 282 1.000 10000.000 0.000 -0.330
4 12.00 1500.00 149 306 1.000 10000.000 0.000 -0.330
5 15.00 1500.00 155 298 1.000 10000.000 0.000 -0.330
6 18.00 1500.00 124 287 1.000 10000.000 0.000 -0.330
7 21.00 1500.00 145 288 1.000 10000.000 0.000 -0.330
8 24.00 1500.00 147 250 1.000 10000.000 0.000 -0.330
9 27.00 1500.00 124 214 1.000 10000.000 0.000 -0.330
10 30.00 1500.00 129 245 1.000 10000.000 0.000 -0.330
11 33.00 1500.00 130 234 1.000 10000.000 0.000 -0.330
12 36.00 1500.00 129 234 1.000 10000.000 0.000 -0.330
13 39.00 1500.00 133 235 1.000 10000.000 0.000 -0.330
14 42.00 1500.00 121 269 1.000 10000.000 0.000 -0.330
15 45.00 1500.00 115 240 1.000 10000.000 0.000 -0.330
16 48.00 1500.00 129 256 1.000 10000.000 0.000 -0.330
17 51.00 1500.00 126 237 1.000 10000.000 0.000 -0.330
18 54.00 1500.00 123 243 1.000 10000.000 0.000 -0.330
19 57.00 1500.00 122 262 1.000 10000.000 0.000 -0.330
20 60.00 1500.00 131 235 1.000 10000.000 0.000 -0.330
21 63.00 1500.00 132 276 1.000 10000.000 0.000 -0.330
22 66.00 1500.00 117 286 1.000 10000.000 0.000 -0.330
23 69.00 1500.00 146 268 1.000 10000.000 0.000 -0.330
24 72.00 1500.00 149 319 1.000 10000.000 0.000 -0.330
25 75.00 1500.00 145 278 1.000 10000.000 0.000 -0.330
26 78.00 1500.00 137 267 1.000 10000.000 0.000 -0.330
27 81.00 1500.00 163 350 1.000 10000.000 0.000 -0.330
28 84.00 1500.00 155 313 1.000 10000.000 0.000 -0.330
29 87.00 1500.00 142 336 1.000 10000.000 0.000 -0.330
30 90.00 1500.00 153 344 1.000 10000.000 0.000 -0.330
31 93.00 1500.00 163 379 1.000 10000.000 0.000 -0.330
32 96.00 1500.00 175 372 1.000 10000.000 0.000 -0.330
33 99.00 1500.00 149 350 1.000 10000.000 0.000 -0.330
34 102.00 1500.00 136 339 1.000 10000.000 0.000 -0.330
35 105.00 1500.00 155 332 1.000 10000.000 0.000 -0.330
36 108.00 1500.00 159 315 1.000 10000.000 0.000 -0.330
37 111.00 1500.00 137 315 1.000 10000.000 0.000 -0.330
38 114.00 1500.00 151 323 1.000 10000.000 0.000 -0.330
39 117.00 1500.00 160 312 1.000 10000.000 0.000 -0.330
40 120.00 1500.00 140 310 1.000 10000.000 0.000 -0.330
41 123.00 1500.00 108 261 1.000 10000.000 0.000 -0.330
42 126.00 1500.00 123 326 1.000 10000.000 0.000 -0.330
43 129.00 1500.00 124 255 1.000 10000.000 0.000 -0.330
44 132.00 1500.00 129 258 1.000 10000.000 0.000 -0.330
45 135.00 1500.00 147 243 1.000 10000.000 0.000 -0.330
46 138.00 1500.00 123 243 1.000 10000.000 0.000 -0.330
47 141.00 1500.00 143 212 1.000 10000.000 0.000 -0.330
48 144.00 1500.00 128 252 1.000 10000.000 0.000 -0.330
49 147.00 1500.00 125 242 1.000 10000.000 0.000 -0.330
50 150.00 1500.00 128 229 1.000 10000.000 0.000 -0.330
51 153.00 1500.00 112 243 1.000 10000.000 0.000 -0.330
52 156.00 1500.00 112 253 1.000 10000.000 0.000 -0.330
53 159.00 1500.00 140 270 1.000 10000.000 0.000 -0.330
54 162.00 1500.00 141 288 1.000 10000.000 0.000 -0.330
55 165.00 1500.00 119 243 1.000 10000.000 0.000 -0.330
56 168.00 1500.00 143 284 1.000 10000.000 0.000 -0.330
57 171.00 1500.00 154 260 1.000 10000.000 0.000 -0.330
58 174.00 1500.00 144 292 1.000 10000.000 0.000 -0.330
59 177.00 1500.00 146 311 1.000 10000.000 0.000 -0.330
60 180.00 1500.00 152 305 1.000 10000.000 0.000 -0.330
61 183.00 1500.00 160 328 1.000 10000.000 0.000 -0.330
62 186.00 1500.00 142 363 1.000 10000.000 0.000 -0.330
63 189.00 1500.00 162 359 1.000 10000.000 0.000 -0.330
64 192.00 1500.00 155 332 1.000 10000.000 0.000 -0.330
65 195.00 1500.00 176 353 1.000 10000.000 0.000 -0.330
66 198.00 1500.00 150 345 1.000 10000.000 0.000 -0.330
67 201.00 1500.00 143 331 1.000 10000.000 0.000 -0.330
68 204.00 1500.00 153 330 1.000 10000.000 0.000 -0.330
69 207.00 1500.00 170 333 1.000 10000.000 0.000 -0.330
70 210.00 1500.00 150 343 1.000 10000.000 0.000 -0.330
71 213.00 1500.00 146 307 1.000 10000.000 0.000 -0.330
72 216.00 1500.00 159 313 1.000 10000.000 0.000 -0.330
73 219.00 1500.00 138 274 1.000 10000.000 0.000 -0.330
74 222.00 1500.00 151 287 1.000 10000.000 0.000 -0.330
75 225.00 1500.00 132 315 1.000 10000.000 0.000 -0.330
76 228.00 1500.00 138 264 1.000 10000.000 0.000 -0.330
77 231.00 1500.00 110 230 1.000 10000.000 0.000 -0.330
78 234.00 1500.00 134 232 1.000 10000.000 0.000 -0.330
79 237.00 1500.00 142 236 1.000 10000.000 0.000 -0.330
80 240.00 1500.00 137 221 1.000 10000.000 0.000 -0.330
81 243.00 1500.00 107 228 1.000 10000.000 0.000 -0.330
82 246.00 1500.00 127 262 1.000 10000.000 0.000 -0.330
83 249.00 1500.00 119 244 1.000 10000.000 0.000 -0.330
84 252.00 1500.00 126 255 1.000 10000.000 0.000 -0.330
85 255.00 1500.00 126 246 1.000 10000.000 0.000 -0.330
86 258.00 1500.00 120 259 1.000 10000.000 0.000 -0.330
87 261.00 1500.00 105 252 1.000 10000.000 0.000 -0.330
88 264.00 1500.00 118 269 1.000 10000.000 0.000 -0.330
89 267.00 1500.00 143 275 1.000 10000.000 0.000 -0.330
90 270.00 1500.00 160 284 1.000 10000.000 0.000 -0.330
91 273.00 1500.00 144 276 1.000 10000.000 0.000 -0.330
92 276.00 1500.00 126 312 1.000 10000.000 0.000 -0.330
93 279.00 1500.00 145 331 1.000 10000.000 0.000 -0.330
94 282.00 1500.00 140 286 1.000 10000.000 0.000 -0.330
95 285.00 1500.00 163 347 1.000 10000.000 0.000 -0.330
96 288.00 1500.00 169 359 1.000 10000.000 0.000 -0.330
97 291.00 1500.00 162 377 1.000 10000.000 0.000 -0.330
98 294.00 1500.00 164 354 1.000 10000.000 0.000 -0.330
99 297.00 1500.00 181 353 1.000 10000.000 0.000 -0.330
100 300.00 1500.00 161 377 1.000 10000.000 0.000 -0.330
101 303.00 1500.00 144 323 1.000 10000.000 0.000 -0.330
102 306.00 1500.00 166 364 1.000 10000.000 0.000 -0.330
103 309.00 1500.00 141 298 1.000 10000.000 0.000 -0.330
104 312.00 1500.00 145 326 1.000 10000.000 0.000 -0.330
105 315.00 1500.00 160 320 1.000 10000.000 0.000 -0.330
106 318.00 1500.00 160 330 1.000 10000.000 0.000 -0.330
107 321.00 1500.00 134 268 1.000 10000.000 0.000 -0.330
108 324.00 1500.00 170 266 1.000 10000.000 0.000 -0.330
109 327.00 1500.00 110 252 1.000 10000.000 0.000 -0.330
110 330.00 1500.00 133 272 1.000 10000.000 0.000 -0.330
111 333.00 1500.00 144 258 1.000 10000.000 0.000 -0.330
112 336.00 1500.00 143 247 1.000 10000.000 0.000 -0.330
113 339.00 1500.00 115 258 1.000 10000.000 0.000 -0.330
114 342.00 1500.00 111 227 1.000 10000.000 0.000 -0.330
115 345.00 1500.00 114 276 1.000 10000.000 0.000 -0.330
116 348.00 1500.00 132 229 1.000 10000.000 0.000 -0.330
117 351.00 1500.00 127 231 1.000 10000.000 0.000 -0.330
118 354.00 1500.00 141 218 1.000 10000.000 0.000 -0.330
119 357.00 1500.00 143 245 1.000 10000.000 0.000 -0.330
120 360.00 1500.00 117 258 1.000 10000.000 0.000 -0.330
121 363.00 1500.00 141 276 1.000 10000.000 0.000 -0.330
122 366.00 1500.00 120 255 1.000 10000.000 0.000 -0.330
123 369.00 1500.00 129 267 1.000 10000.000 0.000 -0.330
124 372.00 1500.00 134 290 1.000 10000.000 0.000 -0.330
125 375.00 1500.00 127 293 1.000 10000.000 0.000 -0.330
126 378.00 1500.00 154 292 1.000 10000.000 0.000 -0.330
127 381.00 1500.00 146 329 1.000 10000.000 0.000 -0.330
128 384.00 1500.00 161 301 1.000 10000.000 0.000 -0.330
129 387.00 1500.00 148 334 1.000 10000.000 0.000 -0.330
130 390.00 1500.00 143 333 1.000 10000.000 0.000 -0.330
131 393.00 1500.00 142 336 1.000 10000.000 0.000 -0.330
132 396.00 1500.00 181 345 1.000 10000.000 0.000 -0.330
133 399.00 1500.00 143 360 1.000 10000.000 0.000 -0.330
134 402.00 1500.00 153 356 1.000 10000.000 0.000 -0.330
