# BinNR microsec tot-time (s)  O-Beam AUX Ampl(V) f(Hz) phase(deg) chi(pos)
0 0.00 1500.00 66 130 1.000 10000.000 0.000 -0.165
1 3.00 1500.00 117 252 1.000 10000.000 0.000 -0.165
2 6.00 1500.00 127 242 1.000 10000.000 0.000 -0.165
3 9.00 1500.00 126 244 1.000 10000.000 0.000 -0.165
4 12.00 1500.00 119 244 1.000 10000.000 0.000 -0.165
5 15.00 1500.00 111 221 1.000 10000.000 0.000 -0.165
6 18.00 1500.00 126 212 1.000 10000.000 0.000 -0.165
7 21.00 1500.00 119 234 1.000 10000.000 0.000 -0.165
8 24.00 1500.00 118 224 1.000 10000.000 0.000 -0.165
9 27.00 1500.00 95 224 1.000 10000.000 0.000 -0.165
10 30.00 1500.00 112 226 1.000 10000.000 0.000 -0.165
11 33.00 1500.00 119 219 1.000 10000.000 0.000 -0.165
12 36.00 1500.00 107 234 1.000 10000.000 0.000 -0.165
13 39.00 1500.00 102 214 1.000 10000.000 0.000 -0.165
14 42.00 1500.00 110 230 1.000 10000.000 0.000 -0.165
15 45.00 1500.00 100 217 1.000 10000.000 0.000 -0.165
16 48.00 1500.00 115 214 1.000 10000.000 0.000 -0.165
17 51.00 1500.00 95 194 1.000 10000.000 0.000 -0.165
18 54.00 1500.00 106 227 1.000 10000.000 0.000 -0.165
19 57.00 1500.00 84 216 1.000 10000.000 0.000 -0.165
20 60.00 1500.00 104 207 1.000 10000.000 0.000 -0.165
21 63.00 1500.00 102 227 1.000 10000.000 0.000 -0.165
22 66.00 1500.00 120 237 1.000 10000.000 0.000 -0.165
23 69.00 1500.00 112 241 1.000 10000.000 0.000 -0.165
24 72.00 1500.00 131 223 1.000 10000.000 0.000 -0.165
25 75.00 1500.00 107 220 1.000 10000.000 0.000 -0.165
26 78.00 1500.00 114 265 1.000 10000.000 0.000 -0.165
27 81.00 1500.00 113 232 1.000 10000.000 0.000 -0.165
28 84.00 1500.00 116 256 1.000 10000.000 0.000 -0.165
29 87.00 1500.00 127 260 1.000 10000.000 0.000 -0.165
30 90.00 1500.00 121 241 1.000 10000.000 0.000 -0.165
31 93.00 1500.00 124 259 1.000 10000.000 0.000 -0.165
32 96.00 1500.00 122 270 1.000 10000.000 0.000 -0.165
33 99.00 1500.00 133 272 1.000 10000.000 0.000 -0.165
34 102.00 1500.00 133 295 1.000 10000.000 0.000 -0.165
35 105.00 1500.00 129 221 1.000 10000.000 0.000 -0.165
36 108.00 1500.00 100 249 1.000 10000.000 0.000 -0.165
37 111.00 1500.00 122 235 1.000 10000.000 0.000 -0.165
38 114.00 1500.00 123 224 1.000 10000.000 0.000 -0.165
39 117.00 1500.00 134 249 1.000 10000.000 0.000 -0.165
40 120.00 1500.00 119 239 1.000 10000.000 0.000 -0.165
41 123.00 1500.00 106 242 1.000 10000.000 0.000 -0.165
42 126.00 1500.00 115 207 1.000 10000.000 0.000 -0.165
43 129.00 1500.00 110 221 1.000 10000.000 0.000 -0.165
44 132.00 1500.00 131 245 1.000 10000.000 0.000 -0.165
45 135.00 1500.00 105 228 1.000 10000.000 0.000 -0.165
46 138.00 1500.00 124 234 1.000 10000.000 0.000 -0.165
47 141.00 1500.00 118 203 1.000 10000.000 0.000 -0.165
48 144.00 1500.00 119 219 1.000 10000.000 0.000 -0.165
49 147.00 1500.00 100 228 1.000 10000.000 0.000 -0.165
50 150.00 1500.00 114 255 1.000 10000.000 0.000 -0.165
51 153.00 1500.00 106 226 1.000 10000.000 0.000 -0.165
52 156.00 1500.00 101 250 1.000 10000.000 0.000 -0.165
53 159.00 1500.00 121 220 1.000 10000.000 0.000 -0.165
54 162.00 1500.00 126 249 1.000 10000.000 0.000 -0.165
55 165.00 1500.00 115 234 1.000 10000.000 0.000 -0.165
56 168.00 1500.00 120 204 1.000 10000.000 0.000 -0.165
57 171.00 1500.00 118 237 1.000 10000.000 0.000 -0.165
58 174.00 1500.00 119 223 1.000 10000.000 0.000 -0.165
59 177.00 1500.00 115 256 1.000 10000.000 0.000 -0.165
60 180.00 1500.00 137 255 1.000 10000.000 0.000 -0.165
61 183.00 1500.00 114 253 1.000 10000.000 0.000 -0.165
62 186.00 1500.00 126 258 1.000 10000.000 0.000 -0.165
63 189.00 1500.00 144 242 1.000 10000.000 0.000 -0.165
64 192.00 1500.00 119 259 1.000 10000.000 0.000 -0.165
65 195.00 1500.00 129 251 1.000 10000.000 0.000 -0.165
66 198.00 1500.00 129 249 1.000 10000.000 0.000 -0.165
67 201.00 1500.00 127 247 1.000 10000.000 0.000 -0.165
68 204.00 1500.00 131 236 1.000 10000.000 0.000 -0.165
69 207.00 1500.00 126 281 1.000 10000.000 0.000 -0.165
70 210.00 1500.00 128 241 1.000 10000.000 0.000 -0.165
71 213.00 1500.00 121 272 1.000 10000.000 0.000 -0.165
72 216.00 1500.00 118 225 1.000 10000.000 0.000 -0.165
73 219.00 1500.00 130 189 1.000 10000.000 0.000 -0.165
74 222.00 1500.00 114 206 1.000 10000.000 0.000 -0.165
75 225.00 1500.00 111 253 1.000 10000.000 0.000 -0.165
76 228.00 1500.00 116 232 1.000 10000.000 0.000 -0.165
77 231.00 1500.00 105 246 1.000 10000.000 0.000 -0.165
78 234.00 1500.00 120 230 1.000 10000.000 0.000 -0.165
79 237.00 1500.00 116 225 1.000 10000.000 0.000 -0.165
80 240.00 1500.00 114 201 1.000 10000.000 0.000 -0.165
81 243.00 1500.00 119 222 1.000 10000.000 0.000 -0.165
82 246.00 1500.00 137 205 1.000 10000.000 0.000 -0.165
83 249.00 1500.00 95 238 1.000 10000.000 0.000 -0.165
84 252.00 1500.00 93 236 1.000 10000.000 0.000 -0.165
85 255.00 1500.00 99 211 1.000 10000.000 0.000 -0.165
86 258.00 1500.00 104 241 1.000 10000.000 0.000 -0.165
87 261.00 1500.00 114 258 1.000 10000.000 0.000 -0.165
88 264.00 1500.00 111 251 1.000 10000.000 0.000 -0.165
89 267.00 1500.00 96 226 1.000 10000.000 0.000 -0.165
90 270.00 1500.00 129 209 1.000 10000.000 0.000 -0.165
91 273.00 1500.00 96 234 1.000 10000.000 0.000 -0.165
92 276.00 1500.00 105 237 1.000 10000.000 0.000 -0.165
93 279.00 1500.00 128 210 1.000 10000.000 0.000 -0.165
94 282.00 1500.00 124 258 1.000 10000.000 0.000 -0.165
95 285.00 1500.00 122 273 1.000 10000.000 0.000 -0.165
96 288.00 1500.00 136 248 1.000 10000.000 0.000 -0.165
97 291.00 1500.00 128 260 1.000 10000.000 0.000 -0.165
98 294.00 1500.00 136 256 1.000 10000.000 0.000 -0.165
99 297.00 1500.00 137 263 1.000 10000.000 0.000 -0.165
100 300.00 1500.00 151 272 1.000 10000.000 0.000 -0.165
101 303.00 1500.00 114 280 1.000 10000.000 0.000 -0.165
102 306.00 1500.00 129 273 1.000 10000.000 0.000 -0.165
103 309.00 1500.00 137 262 1.000 10000.000 0.000 -0.165
104 312.00 1500.00 129 219 1.000 10000.000 0.000 -0.165
105 315.00 1500.00 105 235 1.000 10000.000 0.000 -0.165
106 318.00 1500.00 107 251 1.000 10000.000 0.000 -0.165
107 321.00 1500.00 103 222 1.000 10000.000 0.000 -0.165
108 324.00 1500.00 101 231 1.000 10000.000 0.000 -0.165
109 327.00 1500.00 111 214 1.000 10000.000 0.000 -0.165
110 330.00 1500.00 106 213 1.000 10000.000 0.000 -0.165
111 333.00 1500.00 129 217 1.000 10000.000 0.000 -0.165
112 336.00 1500.00 133 226 1.000 10000.000 0.000 -0.165
113 339.00 1500.00 96 209 1.000 10000.000 0.000 -0.165
114 342.00 1500.00 104 207 1.000 10000.000 0.000 -0.165
115 345.00 1500.00 104 245 1.000 10000.000 0.000 -0.165
116 348.00 1500.00 99 218 1.000 10000.000 0.000 -0.165
117 351.00 1500.00 111 223 1.000 10000.000 0.000 -0.165
118 354.00 1500.00 112 242 1.000 10000.000 0.000 -0.165
119 357.00 1500.00 117 209 1.000 10000.000 0.000 -0.165
120 360.00 1500.00 102 223 1.000 10000.000 0.000 -0.165
121 363.00 1500.00 97 224 1.000 10000.000 0.000 -0.165
122 366.00 1500.00 118 215 1.000 10000.000 0.000 -0.165
123 369.00 1500.00 104 245 1.000 10000.000 0.000 -0.165
124 372.00 1500.00 104 235 1.000 10000.000 0.000 -0.165
125 375.00 1500.00 141 201 1.000 10000.000 0.000 -0.165
126 378.00 1500.00 134 258 1.000 10000.000 0.000 -0.165
127 381.00 1500.00 121 256 1.000 10000.000 0.000 -0.165
128 384.00 1500.00 131 238 1.000 10000.000 0.000 -0.165
129 387.00 1500.00 122 226 1.000 10000.000 0.000 -0.165
130 390.00 1500.00 139 243 1.000 10000.000 0.000 -0.165
131 393.00 1500.00 138 263 1.000 10000.000 0.000 -0.165
132 396.00 1500.00 137 260 1.000 10000.000 0.000 -0.165
133 399.00 1500.00 142 266 1.000 10000.000 0.000 -0.165
134 402.00 1500.00 109 245 1.000 10000.000 0.000 -0.165
