# BinNR microsec tot-time (s)  O-Beam H-beam AUX Ampl(V) f(Hz) phase(deg) chi(pos)
0 0.00 900.00 188 615 2 0.000 5.373 2000.000 -0.934
1 25.00 900.00 123 469 0 0.000 5.373 2000.000 -0.934
2 50.00 900.00 117 428 2 0.000 5.373 2000.000 -0.934
3 75.00 900.00 155 421 3 0.000 5.373 2000.000 -0.934
4 100.00 900.00 193 489 2 0.000 5.373 2000.000 -0.934
5 125.00 900.00 257 553 2 0.000 5.373 2000.000 -0.934
6 150.00 900.00 356 642 0 0.000 5.373 2000.000 -0.934
7 175.00 900.00 407 638 3 0.000 5.373 2000.000 -0.934
8 200.00 900.00 402 707 4 0.000 5.373 2000.000 -0.934
9 225.00 900.00 292 660 1 0.000 5.373 2000.000 -0.934
10 250.00 900.00 219 581 3 0.000 5.373 2000.000 -0.934
11 275.00 900.00 146 480 3 0.000 5.373 2000.000 -0.934
12 300.00 900.00 126 404 0 0.000 5.373 2000.000 -0.934
13 325.00 900.00 173 398 4 0.000 5.373 2000.000 -0.934
14 350.00 900.00 196 485 2 0.000 5.373 2000.000 -0.934
15 375.00 900.00 265 571 4 0.000 5.373 2000.000 -0.934
16 400.00 900.00 402 666 5 0.000 5.373 2000.000 -0.934
17 425.00 900.00 360 686 2 0.000 5.373 2000.000 -0.934
18 450.00 900.00 330 654 3 0.000 5.373 2000.000 -0.934
19 475.00 900.00 277 650 1 0.000 5.373 2000.000 -0.934
20 500.00 900.00 201 604 4 0.000 5.373 2000.000 -0.934
21 525.00 900.00 143 461 2 0.000 5.373 2000.000 -0.934
22 550.00 900.00 129 430 3 0.000 5.373 2000.000 -0.934
23 575.00 900.00 137 430 1 0.000 5.373 2000.000 -0.934
24 600.00 900.00 189 480 0 0.000 5.373 2000.000 -0.934
25 625.00 900.00 242 604 4 0.000 5.373 2000.000 -0.934
26 650.00 900.00 357 627 1 0.000 5.373 2000.000 -0.934
27 675.00 900.00 390 634 3 0.000 5.373 2000.000 -0.934
28 700.00 900.00 373 637 0 0.000 5.373 2000.000 -0.934
29 725.00 900.00 317 594 3 0.000 5.373 2000.000 -0.934
30 750.00 900.00 201 557 0 0.000 5.373 2000.000 -0.934
31 775.00 900.00 178 446 1 0.000 5.373 2000.000 -0.934
32 800.00 900.00 142 420 2 0.000 5.373 2000.000 -0.934
33 825.00 900.00 151 433 2 0.000 5.373 2000.000 -0.934
34 850.00 900.00 216 483 2 0.000 5.373 2000.000 -0.934
35 875.00 900.00 324 564 2 0.000 5.373 2000.000 -0.934
36 900.00 900.00 363 630 2 0.000 5.373 2000.000 -0.934
37 925.00 900.00 399 678 1 0.000 5.373 2000.000 -0.934
38 950.00 900.00 353 683 3 0.000 5.373 2000.000 -0.934
39 975.00 900.00 257 688 2 0.000 5.373 2000.000 -0.934
