# BinNR microsec tot-time (s)  O-Beam H-beam AUX Ampl(V) f(Hz) phase(deg) chi(pos)
0 0.00 900.00 144 658 1 0.000 5.373 2000.000 1.077
1 25.00 900.00 132 543 3 0.000 5.373 2000.000 1.077
2 50.00 900.00 113 405 4 0.000 5.373 2000.000 1.077
3 75.00 900.00 109 397 2 0.000 5.373 2000.000 1.077
4 100.00 900.00 136 421 5 0.000 5.373 2000.000 1.077
5 125.00 900.00 219 554 2 0.000 5.373 2000.000 1.077
6 150.00 900.00 308 568 1 0.000 5.373 2000.000 1.077
7 175.00 900.00 380 618 0 0.000 5.373 2000.000 1.077
8 200.00 900.00 386 623 5 0.000 5.373 2000.000 1.077
9 225.00 900.00 327 600 2 0.000 5.373 2000.000 1.077
10 250.00 900.00 222 515 2 0.000 5.373 2000.000 1.077
11 275.00 900.00 226 428 2 0.000 5.373 2000.000 1.077
12 300.00 900.00 203 408 2 0.000 5.373 2000.000 1.077
13 325.00 900.00 180 449 2 0.000 5.373 2000.000 1.077
14 350.00 900.00 217 534 1 0.000 5.373 2000.000 1.077
15 375.00 900.00 314 632 2 0.000 5.373 2000.000 1.077
16 400.00 900.00 356 684 1 0.000 5.373 2000.000 1.077
17 425.00 900.00 414 740 1 0.000 5.373 2000.000 1.077
18 450.00 900.00 322 704 9 0.000 5.373 2000.000 1.077
19 475.00 900.00 222 672 1 0.000 5.373 2000.000 1.077
20 500.00 900.00 167 644 2 0.000 5.373 2000.000 1.077
21 525.00 900.00 118 547 2 0.000 5.373 2000.000 1.077
22 550.00 900.00 112 471 3 0.000 5.373 2000.000 1.077
23 575.00 900.00 117 414 4 0.000 5.373 2000.000 1.077
24 600.00 900.00 139 423 3 0.000 5.373 2000.000 1.077
25 625.00 900.00 230 517 1 0.000 5.373 2000.000 1.077
26 650.00 900.00 304 621 3 0.000 5.373 2000.000 1.077
27 675.00 900.00 398 637 1 0.000 5.373 2000.000 1.077
28 700.00 900.00 444 600 2 0.000 5.373 2000.000 1.077
29 725.00 900.00 325 566 2 0.000 5.373 2000.000 1.077
30 750.00 900.00 253 552 0 0.000 5.373 2000.000 1.077
31 775.00 900.00 207 456 2 0.000 5.373 2000.000 1.077
32 800.00 900.00 204 392 1 0.000 5.373 2000.000 1.077
33 825.00 900.00 189 467 4 0.000 5.373 2000.000 1.077
34 850.00 900.00 267 550 4 0.000 5.373 2000.000 1.077
35 875.00 900.00 321 631 2 0.000 5.373 2000.000 1.077
36 900.00 900.00 386 676 4 0.000 5.373 2000.000 1.077
37 925.00 900.00 400 671 2 0.000 5.373 2000.000 1.077
38 950.00 900.00 299 712 1 0.000 5.373 2000.000 1.077
39 975.00 900.00 227 664 0 0.000 5.373 2000.000 1.077
