# BinNR microsec tot-time (s)  O-Beam H-beam AUX Ampl(V) f(Hz) phase(deg) chi(pos)
0 0.00 900.00 143 634 3 0.000 5.373 2000.000 -1.077
1 25.00 900.00 78 553 2 0.000 5.373 2000.000 -1.077
2 50.00 900.00 76 480 0 0.000 5.373 2000.000 -1.077
3 75.00 900.00 114 406 2 0.000 5.373 2000.000 -1.077
4 100.00 900.00 125 413 4 0.000 5.373 2000.000 -1.077
5 125.00 900.00 204 487 1 0.000 5.373 2000.000 -1.077
6 150.00 900.00 331 576 1 0.000 5.373 2000.000 -1.077
7 175.00 900.00 367 582 1 0.000 5.373 2000.000 -1.077
8 200.00 900.00 424 588 0 0.000 5.373 2000.000 -1.077
9 225.00 900.00 335 556 1 0.000 5.373 2000.000 -1.077
10 250.00 900.00 285 514 1 0.000 5.373 2000.000 -1.077
11 275.00 900.00 204 426 3 0.000 5.373 2000.000 -1.077
12 300.00 900.00 180 411 3 0.000 5.373 2000.000 -1.077
13 325.00 900.00 202 451 3 0.000 5.373 2000.000 -1.077
14 350.00 900.00 285 596 1 0.000 5.373 2000.000 -1.077
15 375.00 900.00 330 670 3 0.000 5.373 2000.000 -1.077
16 400.00 900.00 394 670 2 0.000 5.373 2000.000 -1.077
17 425.00 900.00 362 690 3 0.000 5.373 2000.000 -1.077
18 450.00 900.00 289 692 2 0.000 5.373 2000.000 -1.077
19 475.00 900.00 208 688 1 0.000 5.373 2000.000 -1.077
20 500.00 900.00 140 670 1 0.000 5.373 2000.000 -1.077
21 525.00 900.00 125 551 2 0.000 5.373 2000.000 -1.077
22 550.00 900.00 110 496 3 0.000 5.373 2000.000 -1.077
23 575.00 900.00 116 421 4 0.000 5.373 2000.000 -1.077
24 600.00 900.00 116 406 4 0.000 5.373 2000.000 -1.077
25 625.00 900.00 175 513 6 0.000 5.373 2000.000 -1.077
26 650.00 900.00 279 554 3 0.000 5.373 2000.000 -1.077
27 675.00 900.00 371 582 0 0.000 5.373 2000.000 -1.077
28 700.00 900.00 396 600 1 0.000 5.373 2000.000 -1.077
29 725.00 900.00 340 569 1 0.000 5.373 2000.000 -1.077
30 750.00 900.00 271 515 3 0.000 5.373 2000.000 -1.077
31 775.00 900.00 233 451 2 0.000 5.373 2000.000 -1.077
32 800.00 900.00 203 418 2 0.000 5.373 2000.000 -1.077
33 825.00 900.00 205 515 4 0.000 5.373 2000.000 -1.077
34 850.00 900.00 256 558 0 0.000 5.373 2000.000 -1.077
35 875.00 900.00 361 622 4 0.000 5.373 2000.000 -1.077
36 900.00 900.00 431 627 2 0.000 5.373 2000.000 -1.077
37 925.00 900.00 384 720 1 0.000 5.373 2000.000 -1.077
38 950.00 900.00 292 748 4 0.000 5.373 2000.000 -1.077
39 975.00 900.00 199 719 2 0.000 5.373 2000.000 -1.077
