# BinNR microsec tot-time (s)  O-Beam H-beam AUX Ampl(V) f(Hz) phase(deg) chi(pos)
0 0.00 900.00 276 596 5 0.000 5.373 2000.000 2.310
1 25.00 900.00 352 626 0 0.000 5.373 2000.000 2.310
2 50.00 900.00 336 711 1 0.000 5.373 2000.000 2.310
3 75.00 900.00 286 673 1 0.000 5.373 2000.000 2.310
4 100.00 900.00 277 587 1 0.000 5.373 2000.000 2.310
5 125.00 900.00 206 516 3 0.000 5.373 2000.000 2.310
6 150.00 900.00 121 452 1 0.000 5.373 2000.000 2.310
7 175.00 900.00 92 388 3 0.000 5.373 2000.000 2.310
8 200.00 900.00 176 394 0 0.000 5.373 2000.000 2.310
9 225.00 900.00 273 445 0 0.000 5.373 2000.000 2.310
10 250.00 900.00 337 536 3 0.000 5.373 2000.000 2.310
11 275.00 900.00 372 600 2 0.000 5.373 2000.000 2.310
12 300.00 900.00 366 702 2 0.000 5.373 2000.000 2.310
13 325.00 900.00 355 684 2 0.000 5.373 2000.000 2.310
14 350.00 900.00 368 675 4 0.000 5.373 2000.000 2.310
15 375.00 900.00 246 597 5 0.000 5.373 2000.000 2.310
16 400.00 900.00 152 510 0 0.000 5.373 2000.000 2.310
17 425.00 900.00 127 458 1 0.000 5.373 2000.000 2.310
18 450.00 900.00 120 461 3 0.000 5.373 2000.000 2.310
19 475.00 900.00 182 523 5 0.000 5.373 2000.000 2.310
20 500.00 900.00 260 604 1 0.000 5.373 2000.000 2.310
21 525.00 900.00 309 627 0 0.000 5.373 2000.000 2.310
22 550.00 900.00 306 721 2 0.000 5.373 2000.000 2.310
23 575.00 900.00 335 641 3 0.000 5.373 2000.000 2.310
24 600.00 900.00 250 585 0 0.000 5.373 2000.000 2.310
25 625.00 900.00 224 487 3 0.000 5.373 2000.000 2.310
26 650.00 900.00 105 447 0 0.000 5.373 2000.000 2.310
27 675.00 900.00 111 434 1 0.000 5.373 2000.000 2.310
28 700.00 900.00 154 400 1 0.000 5.373 2000.000 2.310
29 725.00 900.00 270 425 4 0.000 5.373 2000.000 2.310
30 750.00 900.00 324 520 1 0.000 5.373 2000.000 2.310
31 775.00 900.00 345 596 2 0.000 5.373 2000.000 2.310
32 800.00 900.00 409 662 0 0.000 5.373 2000.000 2.310
33 825.00 900.00 379 728 3 0.000 5.373 2000.000 2.310
34 850.00 900.00 319 644 0 0.000 5.373 2000.000 2.310
35 875.00 900.00 300 595 3 0.000 5.373 2000.000 2.310
36 900.00 900.00 167 511 1 0.000 5.373 2000.000 2.310
37 925.00 900.00 109 495 2 0.000 5.373 2000.000 2.310
38 950.00 900.00 123 449 0 0.000 5.373 2000.000 2.310
39 975.00 900.00 169 516 1 0.000 5.373 2000.000 2.310
