# BinNR microsec tot-time (s)  O-Beam H-beam AUX Ampl(V) f(Hz) phase(deg) chi(pos)
0 0.00 900.00 240 538 2 0.000 5.373 2000.000 -0.791
1 25.00 900.00 204 474 3 0.000 5.373 2000.000 -0.791
2 50.00 900.00 178 409 2 0.000 5.373 2000.000 -0.791
3 75.00 900.00 193 442 2 0.000 5.373 2000.000 -0.791
4 100.00 900.00 229 558 1 0.000 5.373 2000.000 -0.791
5 125.00 900.00 284 638 4 0.000 5.373 2000.000 -0.791
6 150.00 900.00 392 698 2 0.000 5.373 2000.000 -0.791
7 175.00 900.00 407 753 1 0.000 5.373 2000.000 -0.791
8 200.00 900.00 336 749 1 0.000 5.373 2000.000 -0.791
9 225.00 900.00 250 712 1 0.000 5.373 2000.000 -0.791
10 250.00 900.00 159 621 2 0.000 5.373 2000.000 -0.791
11 275.00 900.00 114 500 3 0.000 5.373 2000.000 -0.791
12 300.00 900.00 108 464 2 0.000 5.373 2000.000 -0.791
13 325.00 900.00 115 425 1 0.000 5.373 2000.000 -0.791
14 350.00 900.00 139 478 3 0.000 5.373 2000.000 -0.791
15 375.00 900.00 255 502 2 0.000 5.373 2000.000 -0.791
16 400.00 900.00 335 659 1 0.000 5.373 2000.000 -0.791
17 425.00 900.00 388 648 2 0.000 5.373 2000.000 -0.791
18 450.00 900.00 404 634 5 0.000 5.373 2000.000 -0.791
19 475.00 900.00 334 634 2 0.000 5.373 2000.000 -0.791
20 500.00 900.00 252 567 2 0.000 5.373 2000.000 -0.791
21 525.00 900.00 221 413 1 0.000 5.373 2000.000 -0.791
22 550.00 900.00 183 390 2 0.000 5.373 2000.000 -0.791
23 575.00 900.00 170 462 0 0.000 5.373 2000.000 -0.791
24 600.00 900.00 235 527 2 0.000 5.373 2000.000 -0.791
25 625.00 900.00 313 628 2 0.000 5.373 2000.000 -0.791
26 650.00 900.00 366 686 3 0.000 5.373 2000.000 -0.791
27 675.00 900.00 398 684 2 0.000 5.373 2000.000 -0.791
28 700.00 900.00 314 696 1 0.000 5.373 2000.000 -0.791
29 725.00 900.00 253 707 1 0.000 5.373 2000.000 -0.791
30 750.00 900.00 174 587 2 0.000 5.373 2000.000 -0.791
31 775.00 900.00 130 502 3 0.000 5.373 2000.000 -0.791
32 800.00 900.00 110 462 0 0.000 5.373 2000.000 -0.791
33 825.00 900.00 108 387 0 0.000 5.373 2000.000 -0.791
34 850.00 900.00 129 468 2 0.000 5.373 2000.000 -0.791
35 875.00 900.00 214 490 0 0.000 5.373 2000.000 -0.791
36 900.00 900.00 322 580 2 0.000 5.373 2000.000 -0.791
37 925.00 900.00 421 630 2 0.000 5.373 2000.000 -0.791
38 950.00 900.00 379 644 1 0.000 5.373 2000.000 -0.791
39 975.00 900.00 349 594 1 0.000 5.373 2000.000 -0.791
