# BinNR microsec tot-time (s)  O-Beam H-beam AUX Ampl(V) f(Hz) phase(deg) chi(pos)
0 0.00 1200.00 88 1223 246 1.735 2000.000 0.000 -1.362
1 25.00 1200.00 90 1181 261 1.735 2000.000 0.000 -1.362
2 50.00 1200.00 89 1065 334 1.735 2000.000 0.000 -1.362
3 75.00 1200.00 85 1043 385 1.735 2000.000 0.000 -1.362
4 100.00 1200.00 102 893 404 1.735 2000.000 0.000 -1.362
5 125.00 1200.00 116 839 477 1.735 2000.000 0.000 -1.362
6 150.00 1200.00 143 787 517 1.735 2000.000 0.000 -1.362
7 175.00 1200.00 163 832 495 1.735 2000.000 0.000 -1.362
8 200.00 1200.00 191 794 482 1.735 2000.000 0.000 -1.362
9 225.00 1200.00 230 805 432 1.735 2000.000 0.000 -1.362
10 250.00 1200.00 265 884 392 1.735 2000.000 0.000 -1.362
11 275.00 1200.00 266 937 377 1.735 2000.000 0.000 -1.362
12 300.00 1200.00 245 1078 291 1.735 2000.000 0.000 -1.362
13 325.00 1200.00 228 1137 240 1.735 2000.000 0.000 -1.362
14 350.00 1200.00 228 1178 173 1.735 2000.000 0.000 -1.362
15 375.00 1200.00 208 1216 168 1.735 2000.000 0.000 -1.362
16 400.00 1200.00 202 1263 163 1.735 2000.000 0.000 -1.362
17 425.00 1200.00 174 1261 175 1.735 2000.000 0.000 -1.362
18 450.00 1200.00 157 1293 154 1.735 2000.000 0.000 -1.362
19 475.00 1200.00 105 1248 198 1.735 2000.000 0.000 -1.362
20 500.00 1200.00 89 1208 223 1.735 2000.000 0.000 -1.362
21 525.00 1200.00 92 1195 290 1.735 2000.000 0.000 -1.362
22 550.00 1200.00 56 1187 327 1.735 2000.000 0.000 -1.362
23 575.00 1200.00 71 1026 385 1.735 2000.000 0.000 -1.362
24 600.00 1200.00 97 951 471 1.735 2000.000 0.000 -1.362
25 625.00 1200.00 120 929 444 1.735 2000.000 0.000 -1.362
26 650.00 1200.00 127 814 514 1.735 2000.000 0.000 -1.362
27 675.00 1200.00 167 759 506 1.735 2000.000 0.000 -1.362
28 700.00 1200.00 181 785 492 1.735 2000.000 0.000 -1.362
29 725.00 1200.00 205 793 421 1.735 2000.000 0.000 -1.362
30 750.00 1200.00 262 872 408 1.735 2000.000 0.000 -1.362
31 775.00 1200.00 253 961 381 1.735 2000.000 0.000 -1.362
32 800.00 1200.00 282 989 276 1.735 2000.000 0.000 -1.362
33 825.00 1200.00 258 1129 220 1.735 2000.000 0.000 -1.362
34 850.00 1200.00 247 1199 214 1.735 2000.000 0.000 -1.362
35 875.00 1200.00 231 1309 162 1.735 2000.000 0.000 -1.362
36 900.00 1200.00 195 1300 135 1.735 2000.000 0.000 -1.362
37 925.00 1200.00 189 1297 148 1.735 2000.000 0.000 -1.362
38 950.00 1200.00 134 1244 158 1.735 2000.000 0.000 -1.362
39 975.00 1200.00 103 1301 205 1.735 2000.000 0.000 -1.362
