# BinNR microsec tot-time (s)  O-Beam H-beam AUX Ampl(V) f(Hz) phase(deg) chi(pos)
0 0.00 1200.00 74 1300 129 1.735 2000.000 0.000 0.352
1 25.00 1200.00 73 1462 100 1.735 2000.000 0.000 0.352
2 50.00 1200.00 81 1369 125 1.735 2000.000 0.000 0.352
3 75.00 1200.00 65 1395 120 1.735 2000.000 0.000 0.352
4 100.00 1200.00 60 1350 196 1.735 2000.000 0.000 0.352
5 125.00 1200.00 73 1266 204 1.735 2000.000 0.000 0.352
6 150.00 1200.00 56 1206 214 1.735 2000.000 0.000 0.352
7 175.00 1200.00 65 1217 232 1.735 2000.000 0.000 0.352
8 200.00 1200.00 81 1239 213 1.735 2000.000 0.000 0.352
9 225.00 1200.00 76 1236 185 1.735 2000.000 0.000 0.352
10 250.00 1200.00 124 1350 159 1.735 2000.000 0.000 0.352
11 275.00 1200.00 117 1291 122 1.735 2000.000 0.000 0.352
12 300.00 1200.00 109 1355 131 1.735 2000.000 0.000 0.352
13 325.00 1200.00 114 1344 114 1.735 2000.000 0.000 0.352
14 350.00 1200.00 91 1402 129 1.735 2000.000 0.000 0.352
15 375.00 1200.00 94 1396 126 1.735 2000.000 0.000 0.352
16 400.00 1200.00 76 1318 128 1.735 2000.000 0.000 0.352
17 425.00 1200.00 52 1315 125 1.735 2000.000 0.000 0.352
18 450.00 1200.00 58 1364 123 1.735 2000.000 0.000 0.352
19 475.00 1200.00 66 1314 150 1.735 2000.000 0.000 0.352
20 500.00 1200.00 76 1370 112 1.735 2000.000 0.000 0.352
21 525.00 1200.00 85 1372 112 1.735 2000.000 0.000 0.352
22 550.00 1200.00 80 1422 125 1.735 2000.000 0.000 0.352
23 575.00 1200.00 79 1288 138 1.735 2000.000 0.000 0.352
24 600.00 1200.00 59 1327 190 1.735 2000.000 0.000 0.352
25 625.00 1200.00 66 1281 229 1.735 2000.000 0.000 0.352
26 650.00 1200.00 63 1227 230 1.735 2000.000 0.000 0.352
27 675.00 1200.00 64 1192 233 1.735 2000.000 0.000 0.352
28 700.00 1200.00 59 1219 228 1.735 2000.000 0.000 0.352
29 725.00 1200.00 90 1154 181 1.735 2000.000 0.000 0.352
30 750.00 1200.00 88 1228 160 1.735 2000.000 0.000 0.352
31 775.00 1200.00 111 1250 133 1.735 2000.000 0.000 0.352
32 800.00 1200.00 126 1457 126 1.735 2000.000 0.000 0.352
33 825.00 1200.00 123 1320 125 1.735 2000.000 0.000 0.352
34 850.00 1200.00 113 1404 113 1.735 2000.000 0.000 0.352
35 875.00 1200.00 76 1349 140 1.735 2000.000 0.000 0.352
36 900.00 1200.00 64 1384 144 1.735 2000.000 0.000 0.352
37 925.00 1200.00 78 1368 157 1.735 2000.000 0.000 0.352
38 950.00 1200.00 58 1297 144 1.735 2000.000 0.000 0.352
39 975.00 1200.00 66 1343 140 1.735 2000.000 0.000 0.352
