# BinNR microsec tot-time (s)  O-Beam H-beam AUX Ampl(V) f(Hz) phase(deg) chi(pos)
0 0.00 1200.00 83 1325 156 1.735 2000.000 0.000 0.209
1 25.00 1200.00 124 1361 131 1.735 2000.000 0.000 0.209
2 50.00 1200.00 123 1418 134 1.735 2000.000 0.000 0.209
3 75.00 1200.00 120 1371 101 1.735 2000.000 0.000 0.209
4 100.00 1200.00 118 1393 136 1.735 2000.000 0.000 0.209
5 125.00 1200.00 74 1361 128 1.735 2000.000 0.000 0.209
6 150.00 1200.00 79 1302 149 1.735 2000.000 0.000 0.209
7 175.00 1200.00 57 1333 149 1.735 2000.000 0.000 0.209
8 200.00 1200.00 56 1331 157 1.735 2000.000 0.000 0.209
9 225.00 1200.00 46 1367 147 1.735 2000.000 0.000 0.209
10 250.00 1200.00 54 1341 114 1.735 2000.000 0.000 0.209
11 275.00 1200.00 65 1388 103 1.735 2000.000 0.000 0.209
12 300.00 1200.00 77 1374 130 1.735 2000.000 0.000 0.209
13 325.00 1200.00 71 1364 150 1.735 2000.000 0.000 0.209
14 350.00 1200.00 73 1303 169 1.735 2000.000 0.000 0.209
15 375.00 1200.00 54 1248 210 1.735 2000.000 0.000 0.209
16 400.00 1200.00 69 1263 221 1.735 2000.000 0.000 0.209
17 425.00 1200.00 64 1203 212 1.735 2000.000 0.000 0.209
18 450.00 1200.00 90 1178 209 1.735 2000.000 0.000 0.209
19 475.00 1200.00 83 1219 154 1.735 2000.000 0.000 0.209
20 500.00 1200.00 98 1310 132 1.735 2000.000 0.000 0.209
21 525.00 1200.00 121 1371 133 1.735 2000.000 0.000 0.209
22 550.00 1200.00 122 1366 109 1.735 2000.000 0.000 0.209
23 575.00 1200.00 123 1445 111 1.735 2000.000 0.000 0.209
24 600.00 1200.00 94 1385 124 1.735 2000.000 0.000 0.209
25 625.00 1200.00 96 1290 140 1.735 2000.000 0.000 0.209
26 650.00 1200.00 77 1340 136 1.735 2000.000 0.000 0.209
27 675.00 1200.00 62 1355 148 1.735 2000.000 0.000 0.209
28 700.00 1200.00 77 1372 135 1.735 2000.000 0.000 0.209
29 725.00 1200.00 57 1293 123 1.735 2000.000 0.000 0.209
30 750.00 1200.00 69 1380 112 1.735 2000.000 0.000 0.209
31 775.00 1200.00 89 1375 104 1.735 2000.000 0.000 0.209
32 800.00 1200.00 85 1428 117 1.735 2000.000 0.000 0.209
33 825.00 1200.00 96 1370 137 1.735 2000.000 0.000 0.209
34 850.00 1200.00 71 1283 187 1.735 2000.000 0.000 0.209
35 875.00 1200.00 70 1386 201 1.735 2000.000 0.000 0.209
36 900.00 1200.00 57 1235 208 1.735 2000.000 0.000 0.209
37 925.00 1200.00 58 1188 223 1.735 2000.000 0.000 0.209
38 950.00 1200.00 71 1199 192 1.735 2000.000 0.000 0.209
39 975.00 1200.00 108 1196 207 1.735 2000.000 0.000 0.209
