# BinNR microsec tot-time (s)  O-Beam AUX Ampl(V) f(Hz) phase(deg) chi(pos)
0 0.00 1200.01 114 170 4.000 10000.000 0.000 0.363
1 3.00 1200.01 233 322 4.000 10000.000 0.000 0.363
2 6.00 1200.01 246 357 4.000 10000.000 0.000 0.363
3 9.00 1200.01 235 330 4.000 10000.000 0.000 0.363
4 12.00 1200.01 218 282 4.000 10000.000 0.000 0.363
5 15.00 1200.01 243 241 4.000 10000.000 0.000 0.363
6 18.00 1200.01 222 202 4.000 10000.000 0.000 0.363
7 21.00 1200.01 216 148 4.000 10000.000 0.000 0.363
8 24.00 1200.01 187 133 4.000 10000.000 0.000 0.363
9 27.00 1200.01 182 130 4.000 10000.000 0.000 0.363
10 30.00 1200.01 171 141 4.000 10000.000 0.000 0.363
11 33.00 1200.01 187 165 4.000 10000.000 0.000 0.363
12 36.00 1200.01 110 198 4.000 10000.000 0.000 0.363
13 39.00 1200.01 115 218 4.000 10000.000 0.000 0.363
14 42.00 1200.01 98 287 4.000 10000.000 0.000 0.363
15 45.00 1200.01 106 373 4.000 10000.000 0.000 0.363
16 48.00 1200.01 95 414 4.000 10000.000 0.000 0.363
17 51.00 1200.01 83 482 4.000 10000.000 0.000 0.363
18 54.00 1200.01 101 537 4.000 10000.000 0.000 0.363
19 57.00 1200.01 99 487 4.000 10000.000 0.000 0.363
20 60.00 1200.01 107 543 4.000 10000.000 0.000 0.363
21 63.00 1200.01 117 585 4.000 10000.000 0.000 0.363
22 66.00 1200.01 116 588 4.000 10000.000 0.000 0.363
23 69.00 1200.01 139 560 4.000 10000.000 0.000 0.363
24 72.00 1200.01 140 509 4.000 10000.000 0.000 0.363
25 75.00 1200.01 163 524 4.000 10000.000 0.000 0.363
26 78.00 1200.01 160 521 4.000 10000.000 0.000 0.363
27 81.00 1200.01 180 481 4.000 10000.000 0.000 0.363
28 84.00 1200.01 204 498 4.000 10000.000 0.000 0.363
29 87.00 1200.01 211 355 4.000 10000.000 0.000 0.363
30 90.00 1200.01 205 351 4.000 10000.000 0.000 0.363
31 93.00 1200.01 241 243 4.000 10000.000 0.000 0.363
32 96.00 1200.01 209 214 4.000 10000.000 0.000 0.363
33 99.00 1200.01 230 178 4.000 10000.000 0.000 0.363
34 102.00 1200.01 235 150 4.000 10000.000 0.000 0.363
35 105.00 1200.01 222 137 4.000 10000.000 0.000 0.363
36 108.00 1200.01 241 119 4.000 10000.000 0.000 0.363
37 111.00 1200.01 215 104 4.000 10000.000 0.000 0.363
38 114.00 1200.01 230 102 4.000 10000.000 0.000 0.363
39 117.00 1200.01 216 108 4.000 10000.000 0.000 0.363
40 120.00 1200.01 214 106 4.000 10000.000 0.000 0.363
41 123.00 1200.01 191 120 4.000 10000.000 0.000 0.363
42 126.00 1200.01 169 128 4.000 10000.000 0.000 0.363
43 129.00 1200.01 155 150 4.000 10000.000 0.000 0.363
44 132.00 1200.01 165 182 4.000 10000.000 0.000 0.363
45 135.00 1200.01 121 186 4.000 10000.000 0.000 0.363
46 138.00 1200.01 110 241 4.000 10000.000 0.000 0.363
47 141.00 1200.01 117 319 4.000 10000.000 0.000 0.363
48 144.00 1200.01 107 415 4.000 10000.000 0.000 0.363
49 147.00 1200.01 81 409 4.000 10000.000 0.000 0.363
50 150.00 1200.01 80 466 4.000 10000.000 0.000 0.363
51 153.00 1200.01 98 546 4.000 10000.000 0.000 0.363
52 156.00 1200.01 100 521 4.000 10000.000 0.000 0.363
53 159.00 1200.01 90 531 4.000 10000.000 0.000 0.363
54 162.00 1200.01 84 526 4.000 10000.000 0.000 0.363
55 165.00 1200.01 117 546 4.000 10000.000 0.000 0.363
56 168.00 1200.01 130 587 4.000 10000.000 0.000 0.363
57 171.00 1200.01 153 542 4.000 10000.000 0.000 0.363
58 174.00 1200.01 172 509 4.000 10000.000 0.000 0.363
59 177.00 1200.01 176 472 4.000 10000.000 0.000 0.363
60 180.00 1200.01 185 452 4.000 10000.000 0.000 0.363
61 183.00 1200.01 199 437 4.000 10000.000 0.000 0.363
62 186.00 1200.01 232 375 4.000 10000.000 0.000 0.363
63 189.00 1200.01 222 340 4.000 10000.000 0.000 0.363
64 192.00 1200.01 230 286 4.000 10000.000 0.000 0.363
65 195.00 1200.01 200 231 4.000 10000.000 0.000 0.363
66 198.00 1200.01 224 179 4.000 10000.000 0.000 0.363
67 201.00 1200.01 242 144 4.000 10000.000 0.000 0.363
68 204.00 1200.01 249 129 4.000 10000.000 0.000 0.363
69 207.00 1200.01 228 114 4.000 10000.000 0.000 0.363
70 210.00 1200.01 223 117 4.000 10000.000 0.000 0.363
71 213.00 1200.01 228 100 4.000 10000.000 0.000 0.363
72 216.00 1200.01 234 122 4.000 10000.000 0.000 0.363
73 219.00 1200.01 218 124 4.000 10000.000 0.000 0.363
74 222.00 1200.01 216 100 4.000 10000.000 0.000 0.363
75 225.00 1200.01 192 135 4.000 10000.000 0.000 0.363
76 228.00 1200.01 160 138 4.000 10000.000 0.000 0.363
77 231.00 1200.01 151 149 4.000 10000.000 0.000 0.363
78 234.00 1200.01 133 238 4.000 10000.000 0.000 0.363
79 237.00 1200.01 137 252 4.000 10000.000 0.000 0.363
80 240.00 1200.01 116 307 4.000 10000.000 0.000 0.363
81 243.00 1200.01 131 325 4.000 10000.000 0.000 0.363
82 246.00 1200.01 136 490 4.000 10000.000 0.000 0.363
83 249.00 1200.01 124 495 4.000 10000.000 0.000 0.363
84 252.00 1200.01 143 497 4.000 10000.000 0.000 0.363
85 255.00 1200.01 128 524 4.000 10000.000 0.000 0.363
86 258.00 1200.01 126 583 4.000 10000.000 0.000 0.363
87 261.00 1200.01 152 526 4.000 10000.000 0.000 0.363
88 264.00 1200.01 176 567 4.000 10000.000 0.000 0.363
89 267.00 1200.01 162 551 4.000 10000.000 0.000 0.363
90 270.00 1200.01 172 595 4.000 10000.000 0.000 0.363
91 273.00 1200.01 183 529 4.000 10000.000 0.000 0.363
92 276.00 1200.01 183 560 4.000 10000.000 0.000 0.363
93 279.00 1200.01 186 510 4.000 10000.000 0.000 0.363
94 282.00 1200.01 149 460 4.000 10000.000 0.000 0.363
95 285.00 1200.01 147 429 4.000 10000.000 0.000 0.363
96 288.00 1200.01 127 372 4.000 10000.000 0.000 0.363
97 291.00 1200.01 126 265 4.000 10000.000 0.000 0.363
98 294.00 1200.01 128 273 4.000 10000.000 0.000 0.363
99 297.00 1200.01 108 215 4.000 10000.000 0.000 0.363
100 300.00 1200.01 122 174 4.000 10000.000 0.000 0.363
101 303.00 1200.01 134 134 4.000 10000.000 0.000 0.363
102 306.00 1200.01 127 128 4.000 10000.000 0.000 0.363
103 309.00 1200.01 147 119 4.000 10000.000 0.000 0.363
104 312.00 1200.01 144 133 4.000 10000.000 0.000 0.363
105 315.00 1200.01 182 103 4.000 10000.000 0.000 0.363
106 318.00 1200.01 198 117 4.000 10000.000 0.000 0.363
107 321.00 1200.01 201 113 4.000 10000.000 0.000 0.363
108 324.00 1200.01 221 130 4.000 10000.000 0.000 0.363
109 327.00 1200.01 216 150 4.000 10000.000 0.000 0.363
110 330.00 1200.01 261 147 4.000 10000.000 0.000 0.363
111 333.00 1200.01 236 178 4.000 10000.000 0.000 0.363
112 336.00 1200.01 214 230 4.000 10000.000 0.000 0.363
113 339.00 1200.01 233 287 4.000 10000.000 0.000 0.363
114 342.00 1200.01 232 339 4.000 10000.000 0.000 0.363
115 345.00 1200.01 246 361 4.000 10000.000 0.000 0.363
116 348.00 1200.01 230 423 4.000 10000.000 0.000 0.363
117 351.00 1200.01 215 504 4.000 10000.000 0.000 0.363
118 354.00 1200.01 202 530 4.000 10000.000 0.000 0.363
119 357.00 1200.01 188 508 4.000 10000.000 0.000 0.363
120 360.00 1200.01 203 604 4.000 10000.000 0.000 0.363
121 363.00 1200.01 163 539 4.000 10000.000 0.000 0.363
122 366.00 1200.01 159 557 4.000 10000.000 0.000 0.363
123 369.00 1200.01 142 560 4.000 10000.000 0.000 0.363
124 372.00 1200.01 106 551 4.000 10000.000 0.000 0.363
125 375.00 1200.01 103 541 4.000 10000.000 0.000 0.363
126 378.00 1200.01 89 550 4.000 10000.000 0.000 0.363
127 381.00 1200.01 97 478 4.000 10000.000 0.000 0.363
128 384.00 1200.01 94 427 4.000 10000.000 0.000 0.363
129 387.00 1200.01 72 382 4.000 10000.000 0.000 0.363
130 390.00 1200.01 91 339 4.000 10000.000 0.000 0.363
131 393.00 1200.01 80 257 4.000 10000.000 0.000 0.363
132 396.00 1200.01 98 205 4.000 10000.000 0.000 0.363
133 399.00 1200.01 103 183 4.000 10000.000 0.000 0.363
134 402.00 1200.01 135 149 4.000 10000.000 0.000 0.363
135 405.00 1200.01 137 117 4.000 10000.000 0.000 0.363
136 408.00 1200.01 137 122 4.000 10000.000 0.000 0.363
137 411.00 1200.01 150 107 4.000 10000.000 0.000 0.363
138 414.00 1200.01 211 130 4.000 10000.000 0.000 0.363
139 417.00 1200.01 190 151 4.000 10000.000 0.000 0.363
140 420.00 1200.01 227 195 4.000 10000.000 0.000 0.363
141 423.00 1200.01 209 238 4.000 10000.000 0.000 0.363
