# BinNR microsec tot-time (s)  O-Beam AUX Ampl(V) f(Hz) phase(deg) chi(pos)
0 0.00 1200.00 38 61 2.000 10000.000 0.000 1.099
1 3.00 1200.00 68 133 2.000 10000.000 0.000 1.099
2 6.00 1200.00 75 115 2.000 10000.000 0.000 1.099
3 9.00 1200.00 52 108 2.000 10000.000 0.000 1.099
4 12.00 1200.00 82 150 2.000 10000.000 0.000 1.099
5 15.00 1200.00 76 161 2.000 10000.000 0.000 1.099
6 18.00 1200.00 79 171 2.000 10000.000 0.000 1.099
7 21.00 1200.00 96 212 2.000 10000.000 0.000 1.099
8 24.00 1200.00 111 260 2.000 10000.000 0.000 1.099
9 27.00 1200.00 96 293 2.000 10000.000 0.000 1.099
10 30.00 1200.00 117 374 2.000 10000.000 0.000 1.099
11 33.00 1200.00 138 344 2.000 10000.000 0.000 1.099
12 36.00 1200.00 127 407 2.000 10000.000 0.000 1.099
13 39.00 1200.00 144 468 2.000 10000.000 0.000 1.099
14 42.00 1200.00 138 425 2.000 10000.000 0.000 1.099
15 45.00 1200.00 130 471 2.000 10000.000 0.000 1.099
16 48.00 1200.00 147 480 2.000 10000.000 0.000 1.099
17 51.00 1200.00 126 465 2.000 10000.000 0.000 1.099
18 54.00 1200.00 112 457 2.000 10000.000 0.000 1.099
19 57.00 1200.00 110 404 2.000 10000.000 0.000 1.099
20 60.00 1200.00 112 395 2.000 10000.000 0.000 1.099
21 63.00 1200.00 93 353 2.000 10000.000 0.000 1.099
22 66.00 1200.00 72 332 2.000 10000.000 0.000 1.099
23 69.00 1200.00 78 253 2.000 10000.000 0.000 1.099
24 72.00 1200.00 110 242 2.000 10000.000 0.000 1.099
25 75.00 1200.00 84 168 2.000 10000.000 0.000 1.099
26 78.00 1200.00 76 133 2.000 10000.000 0.000 1.099
27 81.00 1200.00 77 112 2.000 10000.000 0.000 1.099
28 84.00 1200.00 70 102 2.000 10000.000 0.000 1.099
29 87.00 1200.00 72 120 2.000 10000.000 0.000 1.099
30 90.00 1200.00 67 112 2.000 10000.000 0.000 1.099
31 93.00 1200.00 83 134 2.000 10000.000 0.000 1.099
32 96.00 1200.00 65 124 2.000 10000.000 0.000 1.099
33 99.00 1200.00 70 125 2.000 10000.000 0.000 1.099
34 102.00 1200.00 58 118 2.000 10000.000 0.000 1.099
35 105.00 1200.00 59 127 2.000 10000.000 0.000 1.099
36 108.00 1200.00 63 114 2.000 10000.000 0.000 1.099
37 111.00 1200.00 64 109 2.000 10000.000 0.000 1.099
38 114.00 1200.00 77 122 2.000 10000.000 0.000 1.099
39 117.00 1200.00 73 130 2.000 10000.000 0.000 1.099
40 120.00 1200.00 77 148 2.000 10000.000 0.000 1.099
41 123.00 1200.00 84 176 2.000 10000.000 0.000 1.099
42 126.00 1200.00 113 207 2.000 10000.000 0.000 1.099
43 129.00 1200.00 88 249 2.000 10000.000 0.000 1.099
44 132.00 1200.00 122 330 2.000 10000.000 0.000 1.099
45 135.00 1200.00 131 392 2.000 10000.000 0.000 1.099
46 138.00 1200.00 132 408 2.000 10000.000 0.000 1.099
47 141.00 1200.00 125 434 2.000 10000.000 0.000 1.099
48 144.00 1200.00 148 477 2.000 10000.000 0.000 1.099
49 147.00 1200.00 128 469 2.000 10000.000 0.000 1.099
50 150.00 1200.00 165 518 2.000 10000.000 0.000 1.099
51 153.00 1200.00 144 483 2.000 10000.000 0.000 1.099
52 156.00 1200.00 121 502 2.000 10000.000 0.000 1.099
53 159.00 1200.00 142 440 2.000 10000.000 0.000 1.099
54 162.00 1200.00 93 400 2.000 10000.000 0.000 1.099
55 165.00 1200.00 102 354 2.000 10000.000 0.000 1.099
56 168.00 1200.00 84 278 2.000 10000.000 0.000 1.099
57 171.00 1200.00 81 260 2.000 10000.000 0.000 1.099
58 174.00 1200.00 97 187 2.000 10000.000 0.000 1.099
59 177.00 1200.00 81 167 2.000 10000.000 0.000 1.099
60 180.00 1200.00 81 122 2.000 10000.000 0.000 1.099
61 183.00 1200.00 69 105 2.000 10000.000 0.000 1.099
62 186.00 1200.00 51 120 2.000 10000.000 0.000 1.099
63 189.00 1200.00 70 111 2.000 10000.000 0.000 1.099
64 192.00 1200.00 79 116 2.000 10000.000 0.000 1.099
65 195.00 1200.00 69 148 2.000 10000.000 0.000 1.099
66 198.00 1200.00 78 114 2.000 10000.000 0.000 1.099
67 201.00 1200.00 66 151 2.000 10000.000 0.000 1.099
68 204.00 1200.00 71 134 2.000 10000.000 0.000 1.099
69 207.00 1200.00 76 137 2.000 10000.000 0.000 1.099
70 210.00 1200.00 64 121 2.000 10000.000 0.000 1.099
71 213.00 1200.00 58 124 2.000 10000.000 0.000 1.099
72 216.00 1200.00 67 133 2.000 10000.000 0.000 1.099
73 219.00 1200.00 76 157 2.000 10000.000 0.000 1.099
74 222.00 1200.00 70 154 2.000 10000.000 0.000 1.099
75 225.00 1200.00 99 184 2.000 10000.000 0.000 1.099
76 228.00 1200.00 127 262 2.000 10000.000 0.000 1.099
77 231.00 1200.00 121 324 2.000 10000.000 0.000 1.099
78 234.00 1200.00 117 374 2.000 10000.000 0.000 1.099
79 237.00 1200.00 119 387 2.000 10000.000 0.000 1.099
80 240.00 1200.00 152 418 2.000 10000.000 0.000 1.099
81 243.00 1200.00 139 489 2.000 10000.000 0.000 1.099
82 246.00 1200.00 131 486 2.000 10000.000 0.000 1.099
83 249.00 1200.00 135 549 2.000 10000.000 0.000 1.099
84 252.00 1200.00 138 472 2.000 10000.000 0.000 1.099
85 255.00 1200.00 136 499 2.000 10000.000 0.000 1.099
86 258.00 1200.00 127 434 2.000 10000.000 0.000 1.099
87 261.00 1200.00 127 400 2.000 10000.000 0.000 1.099
88 264.00 1200.00 123 365 2.000 10000.000 0.000 1.099
89 267.00 1200.00 101 329 2.000 10000.000 0.000 1.099
90 270.00 1200.00 84 262 2.000 10000.000 0.000 1.099
91 273.00 1200.00 82 197 2.000 10000.000 0.000 1.099
92 276.00 1200.00 87 163 2.000 10000.000 0.000 1.099
93 279.00 1200.00 85 148 2.000 10000.000 0.000 1.099
94 282.00 1200.00 71 117 2.000 10000.000 0.000 1.099
95 285.00 1200.00 84 106 2.000 10000.000 0.000 1.099
96 288.00 1200.00 72 122 2.000 10000.000 0.000 1.099
97 291.00 1200.00 63 120 2.000 10000.000 0.000 1.099
98 294.00 1200.00 65 114 2.000 10000.000 0.000 1.099
99 297.00 1200.00 78 149 2.000 10000.000 0.000 1.099
100 300.00 1200.00 73 125 2.000 10000.000 0.000 1.099
101 303.00 1200.00 56 96 2.000 10000.000 0.000 1.099
