# BinNR microsec tot-time (s)  O-Beam AUX Ampl(V) f(Hz) phase(deg) chi(pos)
0 0.00 1200.01 162 358 2.000 10000.000 0.000 0.516
1 3.00 1200.01 261 684 2.000 10000.000 0.000 0.516
2 6.00 1200.01 240 636 2.000 10000.000 0.000 0.516
3 9.00 1200.01 237 611 2.000 10000.000 0.000 0.516
4 12.00 1200.01 185 591 2.000 10000.000 0.000 0.516
5 15.00 1200.01 181 465 2.000 10000.000 0.000 0.516
6 18.00 1200.01 176 417 2.000 10000.000 0.000 0.516
7 21.00 1200.01 143 366 2.000 10000.000 0.000 0.516
8 24.00 1200.01 141 280 2.000 10000.000 0.000 0.516
9 27.00 1200.01 141 220 2.000 10000.000 0.000 0.516
10 30.00 1200.01 113 214 2.000 10000.000 0.000 0.516
11 33.00 1200.01 107 191 2.000 10000.000 0.000 0.516
12 36.00 1200.01 89 177 2.000 10000.000 0.000 0.516
13 39.00 1200.01 96 156 2.000 10000.000 0.000 0.516
14 42.00 1200.01 94 157 2.000 10000.000 0.000 0.516
15 45.00 1200.01 97 145 2.000 10000.000 0.000 0.516
16 48.00 1200.01 90 159 2.000 10000.000 0.000 0.516
17 51.00 1200.01 107 174 2.000 10000.000 0.000 0.516
18 54.00 1200.01 111 148 2.000 10000.000 0.000 0.516
19 57.00 1200.01 105 179 2.000 10000.000 0.000 0.516
20 60.00 1200.01 137 189 2.000 10000.000 0.000 0.516
21 63.00 1200.01 164 200 2.000 10000.000 0.000 0.516
22 66.00 1200.01 144 250 2.000 10000.000 0.000 0.516
23 69.00 1200.01 197 246 2.000 10000.000 0.000 0.516
24 72.00 1200.01 215 322 2.000 10000.000 0.000 0.516
25 75.00 1200.01 215 340 2.000 10000.000 0.000 0.516
26 78.00 1200.01 232 407 2.000 10000.000 0.000 0.516
27 81.00 1200.01 248 477 2.000 10000.000 0.000 0.516
28 84.00 1200.01 280 569 2.000 10000.000 0.000 0.516
29 87.00 1200.01 291 622 2.000 10000.000 0.000 0.516
30 90.00 1200.01 265 660 2.000 10000.000 0.000 0.516
31 93.00 1200.01 271 726 2.000 10000.000 0.000 0.516
32 96.00 1200.01 288 725 2.000 10000.000 0.000 0.516
33 99.00 1200.01 260 722 2.000 10000.000 0.000 0.516
34 102.00 1200.01 250 749 2.000 10000.000 0.000 0.516
35 105.00 1200.01 269 745 2.000 10000.000 0.000 0.516
36 108.00 1200.01 239 704 2.000 10000.000 0.000 0.516
37 111.00 1200.01 225 626 2.000 10000.000 0.000 0.516
38 114.00 1200.01 194 590 2.000 10000.000 0.000 0.516
39 117.00 1200.01 195 566 2.000 10000.000 0.000 0.516
40 120.00 1200.01 154 484 2.000 10000.000 0.000 0.516
41 123.00 1200.01 127 370 2.000 10000.000 0.000 0.516
42 126.00 1200.01 117 323 2.000 10000.000 0.000 0.516
43 129.00 1200.01 115 257 2.000 10000.000 0.000 0.516
44 132.00 1200.01 109 251 2.000 10000.000 0.000 0.516
45 135.00 1200.01 89 225 2.000 10000.000 0.000 0.516
46 138.00 1200.01 104 189 2.000 10000.000 0.000 0.516
47 141.00 1200.01 98 155 2.000 10000.000 0.000 0.516
48 144.00 1200.01 108 136 2.000 10000.000 0.000 0.516
49 147.00 1200.01 98 133 2.000 10000.000 0.000 0.516
50 150.00 1200.01 87 150 2.000 10000.000 0.000 0.516
51 153.00 1200.01 121 143 2.000 10000.000 0.000 0.516
52 156.00 1200.01 97 137 2.000 10000.000 0.000 0.516
53 159.00 1200.01 103 141 2.000 10000.000 0.000 0.516
54 162.00 1200.01 123 193 2.000 10000.000 0.000 0.516
55 165.00 1200.01 132 187 2.000 10000.000 0.000 0.516
56 168.00 1200.01 169 234 2.000 10000.000 0.000 0.516
57 171.00 1200.01 201 277 2.000 10000.000 0.000 0.516
58 174.00 1200.01 190 353 2.000 10000.000 0.000 0.516
59 177.00 1200.01 192 423 2.000 10000.000 0.000 0.516
60 180.00 1200.01 246 498 2.000 10000.000 0.000 0.516
61 183.00 1200.01 214 568 2.000 10000.000 0.000 0.516
62 186.00 1200.01 263 628 2.000 10000.000 0.000 0.516
63 189.00 1200.01 295 685 2.000 10000.000 0.000 0.516
64 192.00 1200.01 273 735 2.000 10000.000 0.000 0.516
65 195.00 1200.01 292 739 2.000 10000.000 0.000 0.516
66 198.00 1200.01 293 754 2.000 10000.000 0.000 0.516
67 201.00 1200.01 297 716 2.000 10000.000 0.000 0.516
68 204.00 1200.01 304 724 2.000 10000.000 0.000 0.516
69 207.00 1200.01 238 681 2.000 10000.000 0.000 0.516
70 210.00 1200.01 233 650 2.000 10000.000 0.000 0.516
71 213.00 1200.01 198 555 2.000 10000.000 0.000 0.516
72 216.00 1200.01 244 574 2.000 10000.000 0.000 0.516
73 219.00 1200.01 183 486 2.000 10000.000 0.000 0.516
74 222.00 1200.01 182 413 2.000 10000.000 0.000 0.516
75 225.00 1200.01 144 329 2.000 10000.000 0.000 0.516
76 228.00 1200.01 129 284 2.000 10000.000 0.000 0.516
77 231.00 1200.01 108 230 2.000 10000.000 0.000 0.516
78 234.00 1200.01 106 226 2.000 10000.000 0.000 0.516
79 237.00 1200.01 92 182 2.000 10000.000 0.000 0.516
80 240.00 1200.01 105 145 2.000 10000.000 0.000 0.516
81 243.00 1200.01 86 132 2.000 10000.000 0.000 0.516
82 246.00 1200.01 73 134 2.000 10000.000 0.000 0.516
83 249.00 1200.01 78 144 2.000 10000.000 0.000 0.516
84 252.00 1200.01 101 127 2.000 10000.000 0.000 0.516
85 255.00 1200.01 100 123 2.000 10000.000 0.000 0.516
86 258.00 1200.01 107 148 2.000 10000.000 0.000 0.516
87 261.00 1200.01 126 138 2.000 10000.000 0.000 0.516
88 264.00 1200.01 119 181 2.000 10000.000 0.000 0.516
89 267.00 1200.01 168 210 2.000 10000.000 0.000 0.516
90 270.00 1200.01 176 252 2.000 10000.000 0.000 0.516
91 273.00 1200.01 198 348 2.000 10000.000 0.000 0.516
92 276.00 1200.01 226 387 2.000 10000.000 0.000 0.516
93 279.00 1200.01 241 420 2.000 10000.000 0.000 0.516
94 282.00 1200.01 244 552 2.000 10000.000 0.000 0.516
95 285.00 1200.01 250 595 2.000 10000.000 0.000 0.516
96 288.00 1200.01 238 690 2.000 10000.000 0.000 0.516
97 291.00 1200.01 292 701 2.000 10000.000 0.000 0.516
98 294.00 1200.01 320 750 2.000 10000.000 0.000 0.516
99 297.00 1200.01 248 734 2.000 10000.000 0.000 0.516
100 300.00 1200.01 268 723 2.000 10000.000 0.000 0.516
101 303.00 1200.01 221 566 2.000 10000.000 0.000 0.516
