# BinNR microsec tot-time (s)  O-Beam AUX Ampl(V) f(Hz) phase(deg) chi(pos)
0 0.00 1200.00 65 170 2.000 10000.000 0.000 -0.703
1 3.00 1200.00 141 375 2.000 10000.000 0.000 -0.703
2 6.00 1200.00 178 370 2.000 10000.000 0.000 -0.703
3 9.00 1200.00 164 428 2.000 10000.000 0.000 -0.703
4 12.00 1200.00 225 494 2.000 10000.000 0.000 -0.703
5 15.00 1200.00 213 527 2.000 10000.000 0.000 -0.703
6 18.00 1200.00 245 650 2.000 10000.000 0.000 -0.703
7 21.00 1200.00 260 735 2.000 10000.000 0.000 -0.703
8 24.00 1200.00 268 860 2.000 10000.000 0.000 -0.703
9 27.00 1200.00 313 844 2.000 10000.000 0.000 -0.703
10 30.00 1200.00 343 995 2.000 10000.000 0.000 -0.703
11 33.00 1200.00 302 1058 2.000 10000.000 0.000 -0.703
12 36.00 1200.00 325 1017 2.000 10000.000 0.000 -0.703
13 39.00 1200.00 329 1050 2.000 10000.000 0.000 -0.703
14 42.00 1200.00 355 1051 2.000 10000.000 0.000 -0.703
15 45.00 1200.00 345 1039 2.000 10000.000 0.000 -0.703
16 48.00 1200.00 319 1092 2.000 10000.000 0.000 -0.703
17 51.00 1200.00 297 1061 2.000 10000.000 0.000 -0.703
18 54.00 1200.00 289 996 2.000 10000.000 0.000 -0.703
19 57.00 1200.00 284 999 2.000 10000.000 0.000 -0.703
20 60.00 1200.00 298 995 2.000 10000.000 0.000 -0.703
21 63.00 1200.00 242 926 2.000 10000.000 0.000 -0.703
22 66.00 1200.00 244 955 2.000 10000.000 0.000 -0.703
23 69.00 1200.00 226 872 2.000 10000.000 0.000 -0.703
24 72.00 1200.00 206 783 2.000 10000.000 0.000 -0.703
25 75.00 1200.00 181 657 2.000 10000.000 0.000 -0.703
26 78.00 1200.00 181 665 2.000 10000.000 0.000 -0.703
27 81.00 1200.00 154 541 2.000 10000.000 0.000 -0.703
28 84.00 1200.00 139 442 2.000 10000.000 0.000 -0.703
29 87.00 1200.00 108 405 2.000 10000.000 0.000 -0.703
30 90.00 1200.00 128 395 2.000 10000.000 0.000 -0.703
31 93.00 1200.00 123 337 2.000 10000.000 0.000 -0.703
32 96.00 1200.00 124 339 2.000 10000.000 0.000 -0.703
33 99.00 1200.00 123 321 2.000 10000.000 0.000 -0.703
34 102.00 1200.00 137 356 2.000 10000.000 0.000 -0.703
35 105.00 1200.00 159 324 2.000 10000.000 0.000 -0.703
36 108.00 1200.00 154 376 2.000 10000.000 0.000 -0.703
37 111.00 1200.00 181 388 2.000 10000.000 0.000 -0.703
38 114.00 1200.00 211 452 2.000 10000.000 0.000 -0.703
39 117.00 1200.00 220 489 2.000 10000.000 0.000 -0.703
40 120.00 1200.00 269 592 2.000 10000.000 0.000 -0.703
41 123.00 1200.00 267 669 2.000 10000.000 0.000 -0.703
42 126.00 1200.00 356 735 2.000 10000.000 0.000 -0.703
43 129.00 1200.00 306 858 2.000 10000.000 0.000 -0.703
44 132.00 1200.00 290 908 2.000 10000.000 0.000 -0.703
45 135.00 1200.00 307 924 2.000 10000.000 0.000 -0.703
46 138.00 1200.00 329 1023 2.000 10000.000 0.000 -0.703
47 141.00 1200.00 339 1063 2.000 10000.000 0.000 -0.703
48 144.00 1200.00 351 1110 2.000 10000.000 0.000 -0.703
49 147.00 1200.00 320 1090 2.000 10000.000 0.000 -0.703
50 150.00 1200.00 336 1063 2.000 10000.000 0.000 -0.703
51 153.00 1200.00 303 1076 2.000 10000.000 0.000 -0.703
52 156.00 1200.00 322 1049 2.000 10000.000 0.000 -0.703
53 159.00 1200.00 313 1005 2.000 10000.000 0.000 -0.703
54 162.00 1200.00 287 1040 2.000 10000.000 0.000 -0.703
55 165.00 1200.00 258 950 2.000 10000.000 0.000 -0.703
56 168.00 1200.00 250 927 2.000 10000.000 0.000 -0.703
57 171.00 1200.00 226 839 2.000 10000.000 0.000 -0.703
58 174.00 1200.00 191 763 2.000 10000.000 0.000 -0.703
59 177.00 1200.00 185 657 2.000 10000.000 0.000 -0.703
60 180.00 1200.00 171 550 2.000 10000.000 0.000 -0.703
61 183.00 1200.00 150 486 2.000 10000.000 0.000 -0.703
62 186.00 1200.00 132 443 2.000 10000.000 0.000 -0.703
63 189.00 1200.00 130 411 2.000 10000.000 0.000 -0.703
64 192.00 1200.00 150 341 2.000 10000.000 0.000 -0.703
65 195.00 1200.00 146 280 2.000 10000.000 0.000 -0.703
66 198.00 1200.00 132 296 2.000 10000.000 0.000 -0.703
67 201.00 1200.00 127 310 2.000 10000.000 0.000 -0.703
68 204.00 1200.00 123 343 2.000 10000.000 0.000 -0.703
69 207.00 1200.00 138 336 2.000 10000.000 0.000 -0.703
70 210.00 1200.00 135 396 2.000 10000.000 0.000 -0.703
71 213.00 1200.00 166 418 2.000 10000.000 0.000 -0.703
72 216.00 1200.00 203 499 2.000 10000.000 0.000 -0.703
73 219.00 1200.00 221 566 2.000 10000.000 0.000 -0.703
74 222.00 1200.00 283 678 2.000 10000.000 0.000 -0.703
75 225.00 1200.00 247 705 2.000 10000.000 0.000 -0.703
76 228.00 1200.00 319 876 2.000 10000.000 0.000 -0.703
77 231.00 1200.00 288 856 2.000 10000.000 0.000 -0.703
78 234.00 1200.00 308 919 2.000 10000.000 0.000 -0.703
79 237.00 1200.00 313 1042 2.000 10000.000 0.000 -0.703
80 240.00 1200.00 368 965 2.000 10000.000 0.000 -0.703
81 243.00 1200.00 331 1024 2.000 10000.000 0.000 -0.703
82 246.00 1200.00 360 1058 2.000 10000.000 0.000 -0.703
83 249.00 1200.00 305 1032 2.000 10000.000 0.000 -0.703
84 252.00 1200.00 314 1110 2.000 10000.000 0.000 -0.703
85 255.00 1200.00 321 1070 2.000 10000.000 0.000 -0.703
86 258.00 1200.00 309 1053 2.000 10000.000 0.000 -0.703
87 261.00 1200.00 304 1011 2.000 10000.000 0.000 -0.703
88 264.00 1200.00 293 935 2.000 10000.000 0.000 -0.703
89 267.00 1200.00 253 911 2.000 10000.000 0.000 -0.703
90 270.00 1200.00 252 873 2.000 10000.000 0.000 -0.703
91 273.00 1200.00 204 765 2.000 10000.000 0.000 -0.703
92 276.00 1200.00 215 673 2.000 10000.000 0.000 -0.703
93 279.00 1200.00 207 567 2.000 10000.000 0.000 -0.703
94 282.00 1200.00 155 509 2.000 10000.000 0.000 -0.703
95 285.00 1200.00 142 468 2.000 10000.000 0.000 -0.703
96 288.00 1200.00 128 432 2.000 10000.000 0.000 -0.703
97 291.00 1200.00 120 356 2.000 10000.000 0.000 -0.703
98 294.00 1200.00 126 340 2.000 10000.000 0.000 -0.703
99 297.00 1200.00 130 308 2.000 10000.000 0.000 -0.703
100 300.00 1200.00 117 292 2.000 10000.000 0.000 -0.703
101 303.00 1200.00 98 247 2.000 10000.000 0.000 -0.703
