# BinNR microsec tot-time (s)  O-Beam H-beam AUX Ampl1(V) f1(Hz) phase1(deg) Ampl1(V) f1(Hz) phase1(deg) chi(pos)
0 0.00 1200.00 52 495 164 1.715 2000.000 0.000 1.715 3000.000 0.000 0.220
1 16.67 1200.00 73 525 174 1.715 2000.000 0.000 1.715 3000.000 0.000 0.220
2 33.33 1200.00 54 566 164 1.715 2000.000 0.000 1.715 3000.000 0.000 0.220
3 50.00 1200.00 75 545 174 1.715 2000.000 0.000 1.715 3000.000 0.000 0.220
4 66.67 1200.00 52 541 160 1.715 2000.000 0.000 1.715 3000.000 0.000 0.220
5 83.33 1200.00 89 574 166 1.715 2000.000 0.000 1.715 3000.000 0.000 0.220
6 100.00 1200.00 72 547 174 1.715 2000.000 0.000 1.715 3000.000 0.000 0.220
7 116.67 1200.00 78 553 171 1.715 2000.000 0.000 1.715 3000.000 0.000 0.220
8 133.33 1200.00 68 585 165 1.715 2000.000 0.000 1.715 3000.000 0.000 0.220
9 150.00 1200.00 68 527 180 1.715 2000.000 0.000 1.715 3000.000 0.000 0.220
10 166.67 1200.00 64 515 173 1.715 2000.000 0.000 1.715 3000.000 0.000 0.220
11 183.33 1200.00 67 515 185 1.715 2000.000 0.000 1.715 3000.000 0.000 0.220
12 200.00 1200.00 63 537 164 1.715 2000.000 0.000 1.715 3000.000 0.000 0.220
13 216.67 1200.00 76 559 189 1.715 2000.000 0.000 1.715 3000.000 0.000 0.220
14 233.33 1200.00 57 543 174 1.715 2000.000 0.000 1.715 3000.000 0.000 0.220
15 250.00 1200.00 75 501 206 1.715 2000.000 0.000 1.715 3000.000 0.000 0.220
16 266.67 1200.00 66 513 190 1.715 2000.000 0.000 1.715 3000.000 0.000 0.220
17 283.33 1200.00 64 520 168 1.715 2000.000 0.000 1.715 3000.000 0.000 0.220
18 300.00 1200.00 73 518 169 1.715 2000.000 0.000 1.715 3000.000 0.000 0.220
19 316.67 1200.00 65 532 159 1.715 2000.000 0.000 1.715 3000.000 0.000 0.220
20 333.33 1200.00 86 498 175 1.715 2000.000 0.000 1.715 3000.000 0.000 0.220
21 350.00 1200.00 72 532 157 1.715 2000.000 0.000 1.715 3000.000 0.000 0.220
22 366.67 1200.00 80 486 168 1.715 2000.000 0.000 1.715 3000.000 0.000 0.220
23 383.33 1200.00 65 514 159 1.715 2000.000 0.000 1.715 3000.000 0.000 0.220
24 400.00 1200.00 62 531 193 1.715 2000.000 0.000 1.715 3000.000 0.000 0.220
25 416.67 1200.00 66 517 167 1.715 2000.000 0.000 1.715 3000.000 0.000 0.220
26 433.33 1200.00 71 483 162 1.715 2000.000 0.000 1.715 3000.000 0.000 0.220
27 450.00 1200.00 69 527 150 1.715 2000.000 0.000 1.715 3000.000 0.000 0.220
28 466.67 1200.00 67 500 175 1.715 2000.000 0.000 1.715 3000.000 0.000 0.220
29 483.33 1200.00 72 561 174 1.715 2000.000 0.000 1.715 3000.000 0.000 0.220
30 500.00 1200.00 59 556 137 1.715 2000.000 0.000 1.715 3000.000 0.000 0.220
31 516.67 1200.00 74 521 164 1.715 2000.000 0.000 1.715 3000.000 0.000 0.220
32 533.33 1200.00 69 533 156 1.715 2000.000 0.000 1.715 3000.000 0.000 0.220
33 550.00 1200.00 60 517 161 1.715 2000.000 0.000 1.715 3000.000 0.000 0.220
34 566.67 1200.00 66 499 163 1.715 2000.000 0.000 1.715 3000.000 0.000 0.220
35 583.33 1200.00 81 530 173 1.715 2000.000 0.000 1.715 3000.000 0.000 0.220
36 600.00 1200.00 68 586 186 1.715 2000.000 0.000 1.715 3000.000 0.000 0.220
37 616.67 1200.00 56 542 178 1.715 2000.000 0.000 1.715 3000.000 0.000 0.220
38 633.33 1200.00 64 528 174 1.715 2000.000 0.000 1.715 3000.000 0.000 0.220
39 650.00 1200.00 69 544 162 1.715 2000.000 0.000 1.715 3000.000 0.000 0.220
40 666.67 1200.00 80 538 133 1.715 2000.000 0.000 1.715 3000.000 0.000 0.220
41 683.33 1200.00 67 559 174 1.715 2000.000 0.000 1.715 3000.000 0.000 0.220
42 700.00 1200.00 64 549 155 1.715 2000.000 0.000 1.715 3000.000 0.000 0.220
43 716.67 1200.00 69 540 192 1.715 2000.000 0.000 1.715 3000.000 0.000 0.220
44 733.33 1200.00 78 525 161 1.715 2000.000 0.000 1.715 3000.000 0.000 0.220
45 750.00 1200.00 60 545 170 1.715 2000.000 0.000 1.715 3000.000 0.000 0.220
46 766.67 1200.00 73 528 189 1.715 2000.000 0.000 1.715 3000.000 0.000 0.220
47 783.33 1200.00 73 536 166 1.715 2000.000 0.000 1.715 3000.000 0.000 0.220
48 800.00 1200.00 76 569 185 1.715 2000.000 0.000 1.715 3000.000 0.000 0.220
49 816.67 1200.00 74 503 169 1.715 2000.000 0.000 1.715 3000.000 0.000 0.220
50 833.34 1200.00 75 578 169 1.715 2000.000 0.000 1.715 3000.000 0.000 0.220
51 850.00 1200.00 73 520 153 1.715 2000.000 0.000 1.715 3000.000 0.000 0.220
52 866.67 1200.00 76 515 168 1.715 2000.000 0.000 1.715 3000.000 0.000 0.220
53 883.34 1200.00 77 547 171 1.715 2000.000 0.000 1.715 3000.000 0.000 0.220
54 900.00 1200.00 75 599 169 1.715 2000.000 0.000 1.715 3000.000 0.000 0.220
55 916.67 1200.00 75 553 167 1.715 2000.000 0.000 1.715 3000.000 0.000 0.220
56 933.34 1200.00 67 555 142 1.715 2000.000 0.000 1.715 3000.000 0.000 0.220
57 950.00 1200.00 72 586 171 1.715 2000.000 0.000 1.715 3000.000 0.000 0.220
58 966.67 1200.00 64 522 181 1.715 2000.000 0.000 1.715 3000.000 0.000 0.220
59 983.34 1200.00 65 543 174 1.715 2000.000 0.000 1.715 3000.000 0.000 0.220
60 1000.00 1200.00 76 549 149 1.715 2000.000 0.000 1.715 3000.000 0.000 0.220
61 1016.67 1200.00 77 487 208 1.715 2000.000 0.000 1.715 3000.000 0.000 0.220
62 1033.34 1200.00 79 573 193 1.715 2000.000 0.000 1.715 3000.000 0.000 0.220
63 1050.00 1200.00 61 527 162 1.715 2000.000 0.000 1.715 3000.000 0.000 0.220
64 1066.67 1200.00 92 556 159 1.715 2000.000 0.000 1.715 3000.000 0.000 0.220
65 1083.34 1200.00 78 550 162 1.715 2000.000 0.000 1.715 3000.000 0.000 0.220
66 1100.00 1200.00 75 546 172 1.715 2000.000 0.000 1.715 3000.000 0.000 0.220
67 1116.67 1200.00 79 608 181 1.715 2000.000 0.000 1.715 3000.000 0.000 0.220
68 1133.34 1200.00 68 526 179 1.715 2000.000 0.000 1.715 3000.000 0.000 0.220
69 1150.00 1200.00 71 549 184 1.715 2000.000 0.000 1.715 3000.000 0.000 0.220
70 1166.67 1200.00 69 541 176 1.715 2000.000 0.000 1.715 3000.000 0.000 0.220
71 1183.34 1200.00 70 521 183 1.715 2000.000 0.000 1.715 3000.000 0.000 0.220
72 1200.00 1200.00 78 517 171 1.715 2000.000 0.000 1.715 3000.000 0.000 0.220
73 1216.67 1200.00 68 516 175 1.715 2000.000 0.000 1.715 3000.000 0.000 0.220
74 1233.34 1200.00 75 541 174 1.715 2000.000 0.000 1.715 3000.000 0.000 0.220
75 1250.00 1200.00 63 547 151 1.715 2000.000 0.000 1.715 3000.000 0.000 0.220
76 1266.67 1200.00 71 556 171 1.715 2000.000 0.000 1.715 3000.000 0.000 0.220
77 1283.34 1200.00 68 557 189 1.715 2000.000 0.000 1.715 3000.000 0.000 0.220
78 1300.00 1200.00 57 549 171 1.715 2000.000 0.000 1.715 3000.000 0.000 0.220
79 1316.67 1200.00 80 539 175 1.715 2000.000 0.000 1.715 3000.000 0.000 0.220
80 1333.34 1200.00 80 538 176 1.715 2000.000 0.000 1.715 3000.000 0.000 0.220
81 1350.00 1200.00 72 567 159 1.715 2000.000 0.000 1.715 3000.000 0.000 0.220
82 1366.67 1200.00 61 546 166 1.715 2000.000 0.000 1.715 3000.000 0.000 0.220
83 1383.34 1200.00 57 539 176 1.715 2000.000 0.000 1.715 3000.000 0.000 0.220
84 1400.00 1200.00 71 539 159 1.715 2000.000 0.000 1.715 3000.000 0.000 0.220
85 1416.67 1200.00 60 531 182 1.715 2000.000 0.000 1.715 3000.000 0.000 0.220
86 1433.34 1200.00 73 559 163 1.715 2000.000 0.000 1.715 3000.000 0.000 0.220
87 1450.00 1200.00 68 572 187 1.715 2000.000 0.000 1.715 3000.000 0.000 0.220
88 1466.67 1200.00 68 535 163 1.715 2000.000 0.000 1.715 3000.000 0.000 0.220
89 1483.34 1200.00 63 566 171 1.715 2000.000 0.000 1.715 3000.000 0.000 0.220
90 1500.00 1200.00 79 530 175 1.715 2000.000 0.000 1.715 3000.000 0.000 0.220
91 1516.67 1200.00 70 532 177 1.715 2000.000 0.000 1.715 3000.000 0.000 0.220
92 1533.34 1200.00 63 521 160 1.715 2000.000 0.000 1.715 3000.000 0.000 0.220
93 1550.00 1200.00 76 488 167 1.715 2000.000 0.000 1.715 3000.000 0.000 0.220
94 1566.67 1200.00 76 508 163 1.715 2000.000 0.000 1.715 3000.000 0.000 0.220
95 1583.34 1200.00 64 540 164 1.715 2000.000 0.000 1.715 3000.000 0.000 0.220
96 1600.00 1200.00 66 538 161 1.715 2000.000 0.000 1.715 3000.000 0.000 0.220
97 1616.67 1200.00 64 538 148 1.715 2000.000 0.000 1.715 3000.000 0.000 0.220
98 1633.34 1200.00 75 583 185 1.715 2000.000 0.000 1.715 3000.000 0.000 0.220
99 1650.00 1200.00 85 516 161 1.715 2000.000 0.000 1.715 3000.000 0.000 0.220
100 1666.67 1200.00 65 530 142 1.715 2000.000 0.000 1.715 3000.000 0.000 0.220
101 1683.34 1200.00 67 553 173 1.715 2000.000 0.000 1.715 3000.000 0.000 0.220
102 1700.00 1200.00 92 521 161 1.715 2000.000 0.000 1.715 3000.000 0.000 0.220
103 1716.67 1200.00 65 565 160 1.715 2000.000 0.000 1.715 3000.000 0.000 0.220
104 1733.34 1200.00 73 545 167 1.715 2000.000 0.000 1.715 3000.000 0.000 0.220
105 1750.00 1200.00 83 541 204 1.715 2000.000 0.000 1.715 3000.000 0.000 0.220
106 1766.67 1200.00 76 510 160 1.715 2000.000 0.000 1.715 3000.000 0.000 0.220
107 1783.34 1200.00 66 502 192 1.715 2000.000 0.000 1.715 3000.000 0.000 0.220
108 1800.00 1200.00 70 496 142 1.715 2000.000 0.000 1.715 3000.000 0.000 0.220
109 1816.67 1200.00 75 513 188 1.715 2000.000 0.000 1.715 3000.000 0.000 0.220
110 1833.34 1200.00 73 545 170 1.715 2000.000 0.000 1.715 3000.000 0.000 0.220
111 1850.00 1200.00 72 538 168 1.715 2000.000 0.000 1.715 3000.000 0.000 0.220
112 1866.67 1200.00 69 523 149 1.715 2000.000 0.000 1.715 3000.000 0.000 0.220
113 1883.34 1200.00 63 539 162 1.715 2000.000 0.000 1.715 3000.000 0.000 0.220
114 1900.00 1200.00 68 570 160 1.715 2000.000 0.000 1.715 3000.000 0.000 0.220
115 1916.67 1200.00 67 541 151 1.715 2000.000 0.000 1.715 3000.000 0.000 0.220
116 1933.34 1200.00 67 568 159 1.715 2000.000 0.000 1.715 3000.000 0.000 0.220
117 1950.00 1200.00 76 567 168 1.715 2000.000 0.000 1.715 3000.000 0.000 0.220
118 1966.67 1200.00 64 516 147 1.715 2000.000 0.000 1.715 3000.000 0.000 0.220
119 1983.34 1200.00 56 506 171 1.715 2000.000 0.000 1.715 3000.000 0.000 0.220
