# BinNR microsec tot-time (s)  O-Beam H-beam AUX Ampl1(V) f1(Hz) phase1(deg) Ampl1(V) f1(Hz) phase1(deg) chi(pos)
0 0.00 1200.00 45 634 114 1.715 2000.000 0.000 1.715 3000.000 0.000 1.362
1 16.67 1200.00 67 638 121 1.715 2000.000 0.000 1.715 3000.000 0.000 1.362
2 33.33 1200.00 69 611 105 1.715 2000.000 0.000 1.715 3000.000 0.000 1.362
3 50.00 1200.00 52 573 122 1.715 2000.000 0.000 1.715 3000.000 0.000 1.362
4 66.67 1200.00 51 589 105 1.715 2000.000 0.000 1.715 3000.000 0.000 1.362
5 83.33 1200.00 52 577 111 1.715 2000.000 0.000 1.715 3000.000 0.000 1.362
6 100.00 1200.00 50 572 106 1.715 2000.000 0.000 1.715 3000.000 0.000 1.362
7 116.67 1200.00 43 574 110 1.715 2000.000 0.000 1.715 3000.000 0.000 1.362
8 133.33 1200.00 39 597 114 1.715 2000.000 0.000 1.715 3000.000 0.000 1.362
9 150.00 1200.00 47 590 121 1.715 2000.000 0.000 1.715 3000.000 0.000 1.362
10 166.67 1200.00 63 614 115 1.715 2000.000 0.000 1.715 3000.000 0.000 1.362
11 183.33 1200.00 50 639 118 1.715 2000.000 0.000 1.715 3000.000 0.000 1.362
12 200.00 1200.00 67 659 119 1.715 2000.000 0.000 1.715 3000.000 0.000 1.362
13 216.67 1200.00 59 612 117 1.715 2000.000 0.000 1.715 3000.000 0.000 1.362
14 233.33 1200.00 67 669 116 1.715 2000.000 0.000 1.715 3000.000 0.000 1.362
15 250.00 1200.00 49 634 100 1.715 2000.000 0.000 1.715 3000.000 0.000 1.362
16 266.67 1200.00 40 687 128 1.715 2000.000 0.000 1.715 3000.000 0.000 1.362
17 283.33 1200.00 70 620 118 1.715 2000.000 0.000 1.715 3000.000 0.000 1.362
18 300.00 1200.00 53 620 114 1.715 2000.000 0.000 1.715 3000.000 0.000 1.362
19 316.67 1200.00 47 600 123 1.715 2000.000 0.000 1.715 3000.000 0.000 1.362
20 333.33 1200.00 51 655 89 1.715 2000.000 0.000 1.715 3000.000 0.000 1.362
21 350.00 1200.00 61 646 90 1.715 2000.000 0.000 1.715 3000.000 0.000 1.362
22 366.67 1200.00 75 619 118 1.715 2000.000 0.000 1.715 3000.000 0.000 1.362
23 383.33 1200.00 58 649 132 1.715 2000.000 0.000 1.715 3000.000 0.000 1.362
24 400.00 1200.00 61 608 141 1.715 2000.000 0.000 1.715 3000.000 0.000 1.362
25 416.67 1200.00 51 586 107 1.715 2000.000 0.000 1.715 3000.000 0.000 1.362
26 433.33 1200.00 63 608 125 1.715 2000.000 0.000 1.715 3000.000 0.000 1.362
27 450.00 1200.00 65 663 133 1.715 2000.000 0.000 1.715 3000.000 0.000 1.362
28 466.67 1200.00 63 595 152 1.715 2000.000 0.000 1.715 3000.000 0.000 1.362
29 483.33 1200.00 44 665 150 1.715 2000.000 0.000 1.715 3000.000 0.000 1.362
30 500.00 1200.00 39 611 151 1.715 2000.000 0.000 1.715 3000.000 0.000 1.362
31 516.67 1200.00 48 587 130 1.715 2000.000 0.000 1.715 3000.000 0.000 1.362
32 533.33 1200.00 56 679 130 1.715 2000.000 0.000 1.715 3000.000 0.000 1.362
33 550.00 1200.00 49 600 138 1.715 2000.000 0.000 1.715 3000.000 0.000 1.362
34 566.67 1200.00 60 608 123 1.715 2000.000 0.000 1.715 3000.000 0.000 1.362
35 583.33 1200.00 62 637 122 1.715 2000.000 0.000 1.715 3000.000 0.000 1.362
36 600.00 1200.00 66 624 102 1.715 2000.000 0.000 1.715 3000.000 0.000 1.362
37 616.67 1200.00 68 672 117 1.715 2000.000 0.000 1.715 3000.000 0.000 1.362
38 633.33 1200.00 64 653 127 1.715 2000.000 0.000 1.715 3000.000 0.000 1.362
39 650.00 1200.00 61 554 116 1.715 2000.000 0.000 1.715 3000.000 0.000 1.362
40 666.67 1200.00 46 593 154 1.715 2000.000 0.000 1.715 3000.000 0.000 1.362
41 683.33 1200.00 47 561 156 1.715 2000.000 0.000 1.715 3000.000 0.000 1.362
42 700.00 1200.00 49 607 159 1.715 2000.000 0.000 1.715 3000.000 0.000 1.362
43 716.67 1200.00 51 544 134 1.715 2000.000 0.000 1.715 3000.000 0.000 1.362
44 733.33 1200.00 62 585 134 1.715 2000.000 0.000 1.715 3000.000 0.000 1.362
45 750.00 1200.00 40 632 130 1.715 2000.000 0.000 1.715 3000.000 0.000 1.362
46 766.67 1200.00 42 603 117 1.715 2000.000 0.000 1.715 3000.000 0.000 1.362
47 783.33 1200.00 48 642 115 1.715 2000.000 0.000 1.715 3000.000 0.000 1.362
48 800.00 1200.00 50 664 115 1.715 2000.000 0.000 1.715 3000.000 0.000 1.362
49 816.67 1200.00 49 624 110 1.715 2000.000 0.000 1.715 3000.000 0.000 1.362
50 833.34 1200.00 45 610 133 1.715 2000.000 0.000 1.715 3000.000 0.000 1.362
51 850.00 1200.00 60 618 147 1.715 2000.000 0.000 1.715 3000.000 0.000 1.362
52 866.67 1200.00 46 560 140 1.715 2000.000 0.000 1.715 3000.000 0.000 1.362
53 883.34 1200.00 53 581 135 1.715 2000.000 0.000 1.715 3000.000 0.000 1.362
54 900.00 1200.00 45 558 152 1.715 2000.000 0.000 1.715 3000.000 0.000 1.362
55 916.67 1200.00 42 583 147 1.715 2000.000 0.000 1.715 3000.000 0.000 1.362
56 933.34 1200.00 41 540 135 1.715 2000.000 0.000 1.715 3000.000 0.000 1.362
57 950.00 1200.00 47 596 102 1.715 2000.000 0.000 1.715 3000.000 0.000 1.362
58 966.67 1200.00 46 598 117 1.715 2000.000 0.000 1.715 3000.000 0.000 1.362
59 983.34 1200.00 54 606 114 1.715 2000.000 0.000 1.715 3000.000 0.000 1.362
60 1000.00 1200.00 56 618 96 1.715 2000.000 0.000 1.715 3000.000 0.000 1.362
61 1016.67 1200.00 36 679 121 1.715 2000.000 0.000 1.715 3000.000 0.000 1.362
62 1033.34 1200.00 51 612 108 1.715 2000.000 0.000 1.715 3000.000 0.000 1.362
63 1050.00 1200.00 44 589 114 1.715 2000.000 0.000 1.715 3000.000 0.000 1.362
64 1066.67 1200.00 46 561 108 1.715 2000.000 0.000 1.715 3000.000 0.000 1.362
65 1083.34 1200.00 39 626 120 1.715 2000.000 0.000 1.715 3000.000 0.000 1.362
66 1100.00 1200.00 58 580 110 1.715 2000.000 0.000 1.715 3000.000 0.000 1.362
67 1116.67 1200.00 34 533 104 1.715 2000.000 0.000 1.715 3000.000 0.000 1.362
68 1133.34 1200.00 43 599 99 1.715 2000.000 0.000 1.715 3000.000 0.000 1.362
69 1150.00 1200.00 42 627 123 1.715 2000.000 0.000 1.715 3000.000 0.000 1.362
70 1166.67 1200.00 57 586 106 1.715 2000.000 0.000 1.715 3000.000 0.000 1.362
71 1183.34 1200.00 69 622 116 1.715 2000.000 0.000 1.715 3000.000 0.000 1.362
72 1200.00 1200.00 56 657 97 1.715 2000.000 0.000 1.715 3000.000 0.000 1.362
73 1216.67 1200.00 78 611 115 1.715 2000.000 0.000 1.715 3000.000 0.000 1.362
74 1233.34 1200.00 55 617 111 1.715 2000.000 0.000 1.715 3000.000 0.000 1.362
75 1250.00 1200.00 59 575 124 1.715 2000.000 0.000 1.715 3000.000 0.000 1.362
76 1266.67 1200.00 55 638 110 1.715 2000.000 0.000 1.715 3000.000 0.000 1.362
77 1283.34 1200.00 45 644 113 1.715 2000.000 0.000 1.715 3000.000 0.000 1.362
78 1300.00 1200.00 34 652 124 1.715 2000.000 0.000 1.715 3000.000 0.000 1.362
79 1316.67 1200.00 55 645 123 1.715 2000.000 0.000 1.715 3000.000 0.000 1.362
80 1333.34 1200.00 45 649 115 1.715 2000.000 0.000 1.715 3000.000 0.000 1.362
81 1350.00 1200.00 53 627 113 1.715 2000.000 0.000 1.715 3000.000 0.000 1.362
82 1366.67 1200.00 59 611 112 1.715 2000.000 0.000 1.715 3000.000 0.000 1.362
83 1383.34 1200.00 71 653 108 1.715 2000.000 0.000 1.715 3000.000 0.000 1.362
84 1400.00 1200.00 79 590 119 1.715 2000.000 0.000 1.715 3000.000 0.000 1.362
85 1416.67 1200.00 49 601 128 1.715 2000.000 0.000 1.715 3000.000 0.000 1.362
86 1433.34 1200.00 49 593 129 1.715 2000.000 0.000 1.715 3000.000 0.000 1.362
87 1450.00 1200.00 65 617 144 1.715 2000.000 0.000 1.715 3000.000 0.000 1.362
88 1466.67 1200.00 55 606 143 1.715 2000.000 0.000 1.715 3000.000 0.000 1.362
89 1483.34 1200.00 41 642 144 1.715 2000.000 0.000 1.715 3000.000 0.000 1.362
90 1500.00 1200.00 43 630 135 1.715 2000.000 0.000 1.715 3000.000 0.000 1.362
91 1516.67 1200.00 46 622 150 1.715 2000.000 0.000 1.715 3000.000 0.000 1.362
92 1533.34 1200.00 62 626 143 1.715 2000.000 0.000 1.715 3000.000 0.000 1.362
93 1550.00 1200.00 67 639 129 1.715 2000.000 0.000 1.715 3000.000 0.000 1.362
94 1566.67 1200.00 54 608 105 1.715 2000.000 0.000 1.715 3000.000 0.000 1.362
95 1583.34 1200.00 62 622 117 1.715 2000.000 0.000 1.715 3000.000 0.000 1.362
96 1600.00 1200.00 60 627 115 1.715 2000.000 0.000 1.715 3000.000 0.000 1.362
97 1616.67 1200.00 56 600 125 1.715 2000.000 0.000 1.715 3000.000 0.000 1.362
98 1633.34 1200.00 48 615 111 1.715 2000.000 0.000 1.715 3000.000 0.000 1.362
99 1650.00 1200.00 61 588 137 1.715 2000.000 0.000 1.715 3000.000 0.000 1.362
100 1666.67 1200.00 44 551 146 1.715 2000.000 0.000 1.715 3000.000 0.000 1.362
101 1683.34 1200.00 50 558 144 1.715 2000.000 0.000 1.715 3000.000 0.000 1.362
102 1700.00 1200.00 51 558 138 1.715 2000.000 0.000 1.715 3000.000 0.000 1.362
103 1716.67 1200.00 47 575 129 1.715 2000.000 0.000 1.715 3000.000 0.000 1.362
104 1733.34 1200.00 35 518 133 1.715 2000.000 0.000 1.715 3000.000 0.000 1.362
105 1750.00 1200.00 66 587 121 1.715 2000.000 0.000 1.715 3000.000 0.000 1.362
106 1766.67 1200.00 61 586 104 1.715 2000.000 0.000 1.715 3000.000 0.000 1.362
107 1783.34 1200.00 45 635 92 1.715 2000.000 0.000 1.715 3000.000 0.000 1.362
108 1800.00 1200.00 47 650 100 1.715 2000.000 0.000 1.715 3000.000 0.000 1.362
109 1816.67 1200.00 58 651 129 1.715 2000.000 0.000 1.715 3000.000 0.000 1.362
110 1833.34 1200.00 46 642 126 1.715 2000.000 0.000 1.715 3000.000 0.000 1.362
111 1850.00 1200.00 52 567 112 1.715 2000.000 0.000 1.715 3000.000 0.000 1.362
112 1866.67 1200.00 37 552 129 1.715 2000.000 0.000 1.715 3000.000 0.000 1.362
113 1883.34 1200.00 37 563 154 1.715 2000.000 0.000 1.715 3000.000 0.000 1.362
114 1900.00 1200.00 51 561 146 1.715 2000.000 0.000 1.715 3000.000 0.000 1.362
115 1916.67 1200.00 45 534 133 1.715 2000.000 0.000 1.715 3000.000 0.000 1.362
116 1933.34 1200.00 56 559 129 1.715 2000.000 0.000 1.715 3000.000 0.000 1.362
117 1950.00 1200.00 53 559 123 1.715 2000.000 0.000 1.715 3000.000 0.000 1.362
118 1966.67 1200.00 43 576 104 1.715 2000.000 0.000 1.715 3000.000 0.000 1.362
119 1983.34 1200.00 44 594 104 1.715 2000.000 0.000 1.715 3000.000 0.000 1.362
