# BinNR microsec tot-time (s)  O-Beam H-beam AUX Ampl1(V) f1(Hz) phase1(deg) Ampl1(V) f1(Hz) phase1(deg) chi(pos)
0 0.00 1200.00 69 533 199 1.715 2000.000 0.000 1.715 3000.000 0.000 1.066
1 16.67 1200.00 74 490 197 1.715 2000.000 0.000 1.715 3000.000 0.000 1.066
2 33.33 1200.00 64 491 162 1.715 2000.000 0.000 1.715 3000.000 0.000 1.066
3 50.00 1200.00 65 518 191 1.715 2000.000 0.000 1.715 3000.000 0.000 1.066
4 66.67 1200.00 67 523 193 1.715 2000.000 0.000 1.715 3000.000 0.000 1.066
5 83.33 1200.00 76 515 206 1.715 2000.000 0.000 1.715 3000.000 0.000 1.066
6 100.00 1200.00 78 507 205 1.715 2000.000 0.000 1.715 3000.000 0.000 1.066
7 116.67 1200.00 83 478 191 1.715 2000.000 0.000 1.715 3000.000 0.000 1.066
8 133.33 1200.00 103 507 213 1.715 2000.000 0.000 1.715 3000.000 0.000 1.066
9 150.00 1200.00 67 524 189 1.715 2000.000 0.000 1.715 3000.000 0.000 1.066
10 166.67 1200.00 65 521 197 1.715 2000.000 0.000 1.715 3000.000 0.000 1.066
11 183.33 1200.00 80 516 186 1.715 2000.000 0.000 1.715 3000.000 0.000 1.066
12 200.00 1200.00 66 467 203 1.715 2000.000 0.000 1.715 3000.000 0.000 1.066
13 216.67 1200.00 80 498 188 1.715 2000.000 0.000 1.715 3000.000 0.000 1.066
14 233.33 1200.00 74 521 191 1.715 2000.000 0.000 1.715 3000.000 0.000 1.066
15 250.00 1200.00 65 506 183 1.715 2000.000 0.000 1.715 3000.000 0.000 1.066
16 266.67 1200.00 69 506 182 1.715 2000.000 0.000 1.715 3000.000 0.000 1.066
17 283.33 1200.00 70 474 159 1.715 2000.000 0.000 1.715 3000.000 0.000 1.066
18 300.00 1200.00 72 494 213 1.715 2000.000 0.000 1.715 3000.000 0.000 1.066
19 316.67 1200.00 82 495 204 1.715 2000.000 0.000 1.715 3000.000 0.000 1.066
20 333.33 1200.00 77 485 200 1.715 2000.000 0.000 1.715 3000.000 0.000 1.066
21 350.00 1200.00 60 500 211 1.715 2000.000 0.000 1.715 3000.000 0.000 1.066
22 366.67 1200.00 68 516 207 1.715 2000.000 0.000 1.715 3000.000 0.000 1.066
23 383.33 1200.00 62 506 220 1.715 2000.000 0.000 1.715 3000.000 0.000 1.066
24 400.00 1200.00 70 475 174 1.715 2000.000 0.000 1.715 3000.000 0.000 1.066
25 416.67 1200.00 75 524 195 1.715 2000.000 0.000 1.715 3000.000 0.000 1.066
26 433.33 1200.00 76 462 191 1.715 2000.000 0.000 1.715 3000.000 0.000 1.066
27 450.00 1200.00 69 494 185 1.715 2000.000 0.000 1.715 3000.000 0.000 1.066
28 466.67 1200.00 67 472 172 1.715 2000.000 0.000 1.715 3000.000 0.000 1.066
29 483.33 1200.00 68 473 184 1.715 2000.000 0.000 1.715 3000.000 0.000 1.066
30 500.00 1200.00 72 510 162 1.715 2000.000 0.000 1.715 3000.000 0.000 1.066
31 516.67 1200.00 87 531 160 1.715 2000.000 0.000 1.715 3000.000 0.000 1.066
32 533.33 1200.00 85 513 172 1.715 2000.000 0.000 1.715 3000.000 0.000 1.066
33 550.00 1200.00 77 513 163 1.715 2000.000 0.000 1.715 3000.000 0.000 1.066
34 566.67 1200.00 61 503 164 1.715 2000.000 0.000 1.715 3000.000 0.000 1.066
35 583.33 1200.00 74 487 217 1.715 2000.000 0.000 1.715 3000.000 0.000 1.066
36 600.00 1200.00 63 499 198 1.715 2000.000 0.000 1.715 3000.000 0.000 1.066
37 616.67 1200.00 66 496 182 1.715 2000.000 0.000 1.715 3000.000 0.000 1.066
38 633.33 1200.00 69 502 181 1.715 2000.000 0.000 1.715 3000.000 0.000 1.066
39 650.00 1200.00 82 480 172 1.715 2000.000 0.000 1.715 3000.000 0.000 1.066
40 666.67 1200.00 79 535 172 1.715 2000.000 0.000 1.715 3000.000 0.000 1.066
41 683.33 1200.00 80 534 165 1.715 2000.000 0.000 1.715 3000.000 0.000 1.066
42 700.00 1200.00 69 524 167 1.715 2000.000 0.000 1.715 3000.000 0.000 1.066
43 716.67 1200.00 89 537 161 1.715 2000.000 0.000 1.715 3000.000 0.000 1.066
44 733.33 1200.00 61 556 157 1.715 2000.000 0.000 1.715 3000.000 0.000 1.066
45 750.00 1200.00 62 553 178 1.715 2000.000 0.000 1.715 3000.000 0.000 1.066
46 766.67 1200.00 78 542 189 1.715 2000.000 0.000 1.715 3000.000 0.000 1.066
47 783.33 1200.00 70 516 201 1.715 2000.000 0.000 1.715 3000.000 0.000 1.066
48 800.00 1200.00 85 520 198 1.715 2000.000 0.000 1.715 3000.000 0.000 1.066
49 816.67 1200.00 82 500 202 1.715 2000.000 0.000 1.715 3000.000 0.000 1.066
50 833.34 1200.00 93 507 171 1.715 2000.000 0.000 1.715 3000.000 0.000 1.066
51 850.00 1200.00 108 517 174 1.715 2000.000 0.000 1.715 3000.000 0.000 1.066
52 866.67 1200.00 79 517 162 1.715 2000.000 0.000 1.715 3000.000 0.000 1.066
53 883.34 1200.00 72 541 158 1.715 2000.000 0.000 1.715 3000.000 0.000 1.066
54 900.00 1200.00 87 525 182 1.715 2000.000 0.000 1.715 3000.000 0.000 1.066
55 916.67 1200.00 86 571 171 1.715 2000.000 0.000 1.715 3000.000 0.000 1.066
56 933.34 1200.00 79 542 171 1.715 2000.000 0.000 1.715 3000.000 0.000 1.066
57 950.00 1200.00 86 554 208 1.715 2000.000 0.000 1.715 3000.000 0.000 1.066
58 966.67 1200.00 84 481 206 1.715 2000.000 0.000 1.715 3000.000 0.000 1.066
59 983.34 1200.00 84 487 190 1.715 2000.000 0.000 1.715 3000.000 0.000 1.066
60 1000.00 1200.00 75 510 209 1.715 2000.000 0.000 1.715 3000.000 0.000 1.066
61 1016.67 1200.00 90 483 208 1.715 2000.000 0.000 1.715 3000.000 0.000 1.066
62 1033.34 1200.00 81 478 193 1.715 2000.000 0.000 1.715 3000.000 0.000 1.066
63 1050.00 1200.00 75 495 195 1.715 2000.000 0.000 1.715 3000.000 0.000 1.066
64 1066.67 1200.00 67 563 165 1.715 2000.000 0.000 1.715 3000.000 0.000 1.066
65 1083.34 1200.00 82 530 168 1.715 2000.000 0.000 1.715 3000.000 0.000 1.066
66 1100.00 1200.00 80 524 168 1.715 2000.000 0.000 1.715 3000.000 0.000 1.066
67 1116.67 1200.00 69 540 212 1.715 2000.000 0.000 1.715 3000.000 0.000 1.066
68 1133.34 1200.00 83 482 215 1.715 2000.000 0.000 1.715 3000.000 0.000 1.066
69 1150.00 1200.00 83 498 211 1.715 2000.000 0.000 1.715 3000.000 0.000 1.066
70 1166.67 1200.00 74 473 202 1.715 2000.000 0.000 1.715 3000.000 0.000 1.066
71 1183.34 1200.00 76 479 192 1.715 2000.000 0.000 1.715 3000.000 0.000 1.066
72 1200.00 1200.00 66 502 188 1.715 2000.000 0.000 1.715 3000.000 0.000 1.066
73 1216.67 1200.00 56 504 173 1.715 2000.000 0.000 1.715 3000.000 0.000 1.066
74 1233.34 1200.00 71 492 204 1.715 2000.000 0.000 1.715 3000.000 0.000 1.066
75 1250.00 1200.00 87 492 202 1.715 2000.000 0.000 1.715 3000.000 0.000 1.066
76 1266.67 1200.00 91 521 167 1.715 2000.000 0.000 1.715 3000.000 0.000 1.066
77 1283.34 1200.00 69 452 204 1.715 2000.000 0.000 1.715 3000.000 0.000 1.066
78 1300.00 1200.00 72 437 168 1.715 2000.000 0.000 1.715 3000.000 0.000 1.066
79 1316.67 1200.00 72 494 172 1.715 2000.000 0.000 1.715 3000.000 0.000 1.066
80 1333.34 1200.00 77 474 210 1.715 2000.000 0.000 1.715 3000.000 0.000 1.066
81 1350.00 1200.00 88 457 191 1.715 2000.000 0.000 1.715 3000.000 0.000 1.066
82 1366.67 1200.00 75 475 183 1.715 2000.000 0.000 1.715 3000.000 0.000 1.066
83 1383.34 1200.00 68 492 189 1.715 2000.000 0.000 1.715 3000.000 0.000 1.066
84 1400.00 1200.00 71 493 201 1.715 2000.000 0.000 1.715 3000.000 0.000 1.066
85 1416.67 1200.00 60 495 194 1.715 2000.000 0.000 1.715 3000.000 0.000 1.066
86 1433.34 1200.00 80 470 198 1.715 2000.000 0.000 1.715 3000.000 0.000 1.066
87 1450.00 1200.00 68 486 178 1.715 2000.000 0.000 1.715 3000.000 0.000 1.066
88 1466.67 1200.00 63 500 157 1.715 2000.000 0.000 1.715 3000.000 0.000 1.066
89 1483.34 1200.00 76 480 166 1.715 2000.000 0.000 1.715 3000.000 0.000 1.066
90 1500.00 1200.00 87 511 158 1.715 2000.000 0.000 1.715 3000.000 0.000 1.066
91 1516.67 1200.00 77 490 163 1.715 2000.000 0.000 1.715 3000.000 0.000 1.066
92 1533.34 1200.00 88 533 190 1.715 2000.000 0.000 1.715 3000.000 0.000 1.066
93 1550.00 1200.00 76 464 171 1.715 2000.000 0.000 1.715 3000.000 0.000 1.066
94 1566.67 1200.00 60 484 189 1.715 2000.000 0.000 1.715 3000.000 0.000 1.066
95 1583.34 1200.00 67 504 211 1.715 2000.000 0.000 1.715 3000.000 0.000 1.066
96 1600.00 1200.00 61 513 205 1.715 2000.000 0.000 1.715 3000.000 0.000 1.066
97 1616.67 1200.00 68 513 204 1.715 2000.000 0.000 1.715 3000.000 0.000 1.066
98 1633.34 1200.00 69 502 169 1.715 2000.000 0.000 1.715 3000.000 0.000 1.066
99 1650.00 1200.00 84 481 166 1.715 2000.000 0.000 1.715 3000.000 0.000 1.066
100 1666.67 1200.00 82 521 165 1.715 2000.000 0.000 1.715 3000.000 0.000 1.066
101 1683.34 1200.00 85 523 166 1.715 2000.000 0.000 1.715 3000.000 0.000 1.066
102 1700.00 1200.00 69 554 144 1.715 2000.000 0.000 1.715 3000.000 0.000 1.066
103 1716.67 1200.00 63 563 161 1.715 2000.000 0.000 1.715 3000.000 0.000 1.066
104 1733.34 1200.00 84 545 180 1.715 2000.000 0.000 1.715 3000.000 0.000 1.066
105 1750.00 1200.00 77 536 178 1.715 2000.000 0.000 1.715 3000.000 0.000 1.066
106 1766.67 1200.00 88 487 203 1.715 2000.000 0.000 1.715 3000.000 0.000 1.066
107 1783.34 1200.00 90 513 193 1.715 2000.000 0.000 1.715 3000.000 0.000 1.066
108 1800.00 1200.00 84 470 189 1.715 2000.000 0.000 1.715 3000.000 0.000 1.066
109 1816.67 1200.00 89 506 160 1.715 2000.000 0.000 1.715 3000.000 0.000 1.066
110 1833.34 1200.00 81 526 161 1.715 2000.000 0.000 1.715 3000.000 0.000 1.066
111 1850.00 1200.00 94 535 195 1.715 2000.000 0.000 1.715 3000.000 0.000 1.066
112 1866.67 1200.00 80 517 187 1.715 2000.000 0.000 1.715 3000.000 0.000 1.066
113 1883.34 1200.00 82 531 176 1.715 2000.000 0.000 1.715 3000.000 0.000 1.066
114 1900.00 1200.00 72 555 181 1.715 2000.000 0.000 1.715 3000.000 0.000 1.066
115 1916.67 1200.00 91 561 202 1.715 2000.000 0.000 1.715 3000.000 0.000 1.066
116 1933.34 1200.00 78 536 194 1.715 2000.000 0.000 1.715 3000.000 0.000 1.066
117 1950.00 1200.00 68 522 193 1.715 2000.000 0.000 1.715 3000.000 0.000 1.066
118 1966.67 1200.00 71 468 178 1.715 2000.000 0.000 1.715 3000.000 0.000 1.066
119 1983.34 1200.00 67 442 205 1.715 2000.000 0.000 1.715 3000.000 0.000 1.066
