# BinNR microsec tot-time (s)  O-Beam H-beam AUX Ampl1(V) f1(Hz) phase1(deg) Ampl1(V) f1(Hz) phase1(deg) chi(pos)
0 0.00 1200.00 86 411 195 1.715 2000.000 0.000 1.715 3000.000 0.000 0.516
1 16.67 1200.00 111 413 210 1.715 2000.000 0.000 1.715 3000.000 0.000 0.516
2 33.33 1200.00 83 471 250 1.715 2000.000 0.000 1.715 3000.000 0.000 0.516
3 50.00 1200.00 85 429 238 1.715 2000.000 0.000 1.715 3000.000 0.000 0.516
4 66.67 1200.00 112 498 244 1.715 2000.000 0.000 1.715 3000.000 0.000 0.516
5 83.33 1200.00 100 451 257 1.715 2000.000 0.000 1.715 3000.000 0.000 0.516
6 100.00 1200.00 100 500 251 1.715 2000.000 0.000 1.715 3000.000 0.000 0.516
7 116.67 1200.00 92 536 263 1.715 2000.000 0.000 1.715 3000.000 0.000 0.516
8 133.33 1200.00 97 509 238 1.715 2000.000 0.000 1.715 3000.000 0.000 0.516
9 150.00 1200.00 90 460 267 1.715 2000.000 0.000 1.715 3000.000 0.000 0.516
10 166.67 1200.00 78 441 245 1.715 2000.000 0.000 1.715 3000.000 0.000 0.516
11 183.33 1200.00 73 414 230 1.715 2000.000 0.000 1.715 3000.000 0.000 0.516
12 200.00 1200.00 81 378 252 1.715 2000.000 0.000 1.715 3000.000 0.000 0.516
13 216.67 1200.00 63 401 269 1.715 2000.000 0.000 1.715 3000.000 0.000 0.516
14 233.33 1200.00 74 405 245 1.715 2000.000 0.000 1.715 3000.000 0.000 0.516
15 250.00 1200.00 83 444 227 1.715 2000.000 0.000 1.715 3000.000 0.000 0.516
16 266.67 1200.00 88 397 220 1.715 2000.000 0.000 1.715 3000.000 0.000 0.516
17 283.33 1200.00 101 401 192 1.715 2000.000 0.000 1.715 3000.000 0.000 0.516
18 300.00 1200.00 96 392 222 1.715 2000.000 0.000 1.715 3000.000 0.000 0.516
19 316.67 1200.00 94 419 231 1.715 2000.000 0.000 1.715 3000.000 0.000 0.516
20 333.33 1200.00 94 435 205 1.715 2000.000 0.000 1.715 3000.000 0.000 0.516
21 350.00 1200.00 86 380 228 1.715 2000.000 0.000 1.715 3000.000 0.000 0.516
22 366.67 1200.00 75 408 239 1.715 2000.000 0.000 1.715 3000.000 0.000 0.516
23 383.33 1200.00 65 398 252 1.715 2000.000 0.000 1.715 3000.000 0.000 0.516
24 400.00 1200.00 70 433 245 1.715 2000.000 0.000 1.715 3000.000 0.000 0.516
25 416.67 1200.00 79 422 228 1.715 2000.000 0.000 1.715 3000.000 0.000 0.516
26 433.33 1200.00 86 450 198 1.715 2000.000 0.000 1.715 3000.000 0.000 0.516
27 450.00 1200.00 65 447 203 1.715 2000.000 0.000 1.715 3000.000 0.000 0.516
28 466.67 1200.00 92 424 167 1.715 2000.000 0.000 1.715 3000.000 0.000 0.516
29 483.33 1200.00 102 426 175 1.715 2000.000 0.000 1.715 3000.000 0.000 0.516
30 500.00 1200.00 106 404 145 1.715 2000.000 0.000 1.715 3000.000 0.000 0.516
31 516.67 1200.00 100 435 167 1.715 2000.000 0.000 1.715 3000.000 0.000 0.516
32 533.33 1200.00 93 462 199 1.715 2000.000 0.000 1.715 3000.000 0.000 0.516
33 550.00 1200.00 93 483 190 1.715 2000.000 0.000 1.715 3000.000 0.000 0.516
34 566.67 1200.00 80 449 231 1.715 2000.000 0.000 1.715 3000.000 0.000 0.516
35 583.33 1200.00 82 453 235 1.715 2000.000 0.000 1.715 3000.000 0.000 0.516
36 600.00 1200.00 80 401 244 1.715 2000.000 0.000 1.715 3000.000 0.000 0.516
37 616.67 1200.00 80 435 230 1.715 2000.000 0.000 1.715 3000.000 0.000 0.516
38 633.33 1200.00 76 460 215 1.715 2000.000 0.000 1.715 3000.000 0.000 0.516
39 650.00 1200.00 95 430 184 1.715 2000.000 0.000 1.715 3000.000 0.000 0.516
40 666.67 1200.00 106 466 151 1.715 2000.000 0.000 1.715 3000.000 0.000 0.516
41 683.33 1200.00 82 497 170 1.715 2000.000 0.000 1.715 3000.000 0.000 0.516
42 700.00 1200.00 96 499 165 1.715 2000.000 0.000 1.715 3000.000 0.000 0.516
43 716.67 1200.00 98 518 148 1.715 2000.000 0.000 1.715 3000.000 0.000 0.516
44 733.33 1200.00 103 502 206 1.715 2000.000 0.000 1.715 3000.000 0.000 0.516
45 750.00 1200.00 108 546 208 1.715 2000.000 0.000 1.715 3000.000 0.000 0.516
46 766.67 1200.00 96 494 221 1.715 2000.000 0.000 1.715 3000.000 0.000 0.516
47 783.33 1200.00 117 464 250 1.715 2000.000 0.000 1.715 3000.000 0.000 0.516
48 800.00 1200.00 104 424 223 1.715 2000.000 0.000 1.715 3000.000 0.000 0.516
49 816.67 1200.00 96 429 236 1.715 2000.000 0.000 1.715 3000.000 0.000 0.516
50 833.34 1200.00 100 411 190 1.715 2000.000 0.000 1.715 3000.000 0.000 0.516
51 850.00 1200.00 99 448 222 1.715 2000.000 0.000 1.715 3000.000 0.000 0.516
52 866.67 1200.00 102 461 188 1.715 2000.000 0.000 1.715 3000.000 0.000 0.516
53 883.34 1200.00 107 493 211 1.715 2000.000 0.000 1.715 3000.000 0.000 0.516
54 900.00 1200.00 86 516 186 1.715 2000.000 0.000 1.715 3000.000 0.000 0.516
55 916.67 1200.00 105 535 221 1.715 2000.000 0.000 1.715 3000.000 0.000 0.516
56 933.34 1200.00 98 529 222 1.715 2000.000 0.000 1.715 3000.000 0.000 0.516
57 950.00 1200.00 84 500 226 1.715 2000.000 0.000 1.715 3000.000 0.000 0.516
58 966.67 1200.00 105 470 239 1.715 2000.000 0.000 1.715 3000.000 0.000 0.516
59 983.34 1200.00 90 466 247 1.715 2000.000 0.000 1.715 3000.000 0.000 0.516
60 1000.00 1200.00 97 393 242 1.715 2000.000 0.000 1.715 3000.000 0.000 0.516
61 1016.67 1200.00 77 389 256 1.715 2000.000 0.000 1.715 3000.000 0.000 0.516
62 1033.34 1200.00 101 454 217 1.715 2000.000 0.000 1.715 3000.000 0.000 0.516
63 1050.00 1200.00 82 479 242 1.715 2000.000 0.000 1.715 3000.000 0.000 0.516
64 1066.67 1200.00 100 469 238 1.715 2000.000 0.000 1.715 3000.000 0.000 0.516
65 1083.34 1200.00 102 515 254 1.715 2000.000 0.000 1.715 3000.000 0.000 0.516
66 1100.00 1200.00 100 487 226 1.715 2000.000 0.000 1.715 3000.000 0.000 0.516
67 1116.67 1200.00 93 484 251 1.715 2000.000 0.000 1.715 3000.000 0.000 0.516
68 1133.34 1200.00 95 485 252 1.715 2000.000 0.000 1.715 3000.000 0.000 0.516
69 1150.00 1200.00 80 417 258 1.715 2000.000 0.000 1.715 3000.000 0.000 0.516
70 1166.67 1200.00 78 456 259 1.715 2000.000 0.000 1.715 3000.000 0.000 0.516
71 1183.34 1200.00 84 456 226 1.715 2000.000 0.000 1.715 3000.000 0.000 0.516
72 1200.00 1200.00 57 426 210 1.715 2000.000 0.000 1.715 3000.000 0.000 0.516
73 1216.67 1200.00 74 435 227 1.715 2000.000 0.000 1.715 3000.000 0.000 0.516
74 1233.34 1200.00 67 399 246 1.715 2000.000 0.000 1.715 3000.000 0.000 0.516
75 1250.00 1200.00 73 397 216 1.715 2000.000 0.000 1.715 3000.000 0.000 0.516
76 1266.67 1200.00 85 406 265 1.715 2000.000 0.000 1.715 3000.000 0.000 0.516
77 1283.34 1200.00 95 396 230 1.715 2000.000 0.000 1.715 3000.000 0.000 0.516
78 1300.00 1200.00 98 426 253 1.715 2000.000 0.000 1.715 3000.000 0.000 0.516
79 1316.67 1200.00 101 395 259 1.715 2000.000 0.000 1.715 3000.000 0.000 0.516
80 1333.34 1200.00 100 414 215 1.715 2000.000 0.000 1.715 3000.000 0.000 0.516
81 1350.00 1200.00 82 380 226 1.715 2000.000 0.000 1.715 3000.000 0.000 0.516
82 1366.67 1200.00 86 401 242 1.715 2000.000 0.000 1.715 3000.000 0.000 0.516
83 1383.34 1200.00 67 408 240 1.715 2000.000 0.000 1.715 3000.000 0.000 0.516
84 1400.00 1200.00 58 436 243 1.715 2000.000 0.000 1.715 3000.000 0.000 0.516
85 1416.67 1200.00 70 425 224 1.715 2000.000 0.000 1.715 3000.000 0.000 0.516
86 1433.34 1200.00 75 419 249 1.715 2000.000 0.000 1.715 3000.000 0.000 0.516
87 1450.00 1200.00 84 437 230 1.715 2000.000 0.000 1.715 3000.000 0.000 0.516
88 1466.67 1200.00 98 428 221 1.715 2000.000 0.000 1.715 3000.000 0.000 0.516
89 1483.34 1200.00 97 417 185 1.715 2000.000 0.000 1.715 3000.000 0.000 0.516
90 1500.00 1200.00 109 460 179 1.715 2000.000 0.000 1.715 3000.000 0.000 0.516
91 1516.67 1200.00 102 420 185 1.715 2000.000 0.000 1.715 3000.000 0.000 0.516
92 1533.34 1200.00 95 453 183 1.715 2000.000 0.000 1.715 3000.000 0.000 0.516
93 1550.00 1200.00 86 441 210 1.715 2000.000 0.000 1.715 3000.000 0.000 0.516
94 1566.67 1200.00 78 452 224 1.715 2000.000 0.000 1.715 3000.000 0.000 0.516
95 1583.34 1200.00 80 406 265 1.715 2000.000 0.000 1.715 3000.000 0.000 0.516
96 1600.00 1200.00 93 375 235 1.715 2000.000 0.000 1.715 3000.000 0.000 0.516
97 1616.67 1200.00 87 448 232 1.715 2000.000 0.000 1.715 3000.000 0.000 0.516
98 1633.34 1200.00 72 420 206 1.715 2000.000 0.000 1.715 3000.000 0.000 0.516
99 1650.00 1200.00 92 476 192 1.715 2000.000 0.000 1.715 3000.000 0.000 0.516
100 1666.67 1200.00 91 427 176 1.715 2000.000 0.000 1.715 3000.000 0.000 0.516
101 1683.34 1200.00 98 523 178 1.715 2000.000 0.000 1.715 3000.000 0.000 0.516
102 1700.00 1200.00 108 506 178 1.715 2000.000 0.000 1.715 3000.000 0.000 0.516
103 1716.67 1200.00 95 499 182 1.715 2000.000 0.000 1.715 3000.000 0.000 0.516
104 1733.34 1200.00 117 530 197 1.715 2000.000 0.000 1.715 3000.000 0.000 0.516
105 1750.00 1200.00 119 524 196 1.715 2000.000 0.000 1.715 3000.000 0.000 0.516
106 1766.67 1200.00 84 468 258 1.715 2000.000 0.000 1.715 3000.000 0.000 0.516
107 1783.34 1200.00 92 506 228 1.715 2000.000 0.000 1.715 3000.000 0.000 0.516
108 1800.00 1200.00 94 436 251 1.715 2000.000 0.000 1.715 3000.000 0.000 0.516
109 1816.67 1200.00 121 410 229 1.715 2000.000 0.000 1.715 3000.000 0.000 0.516
110 1833.34 1200.00 123 432 212 1.715 2000.000 0.000 1.715 3000.000 0.000 0.516
111 1850.00 1200.00 99 472 212 1.715 2000.000 0.000 1.715 3000.000 0.000 0.516
112 1866.67 1200.00 110 461 166 1.715 2000.000 0.000 1.715 3000.000 0.000 0.516
113 1883.34 1200.00 81 526 178 1.715 2000.000 0.000 1.715 3000.000 0.000 0.516
114 1900.00 1200.00 90 560 194 1.715 2000.000 0.000 1.715 3000.000 0.000 0.516
115 1916.67 1200.00 94 480 207 1.715 2000.000 0.000 1.715 3000.000 0.000 0.516
116 1933.34 1200.00 96 515 204 1.715 2000.000 0.000 1.715 3000.000 0.000 0.516
117 1950.00 1200.00 90 534 202 1.715 2000.000 0.000 1.715 3000.000 0.000 0.516
118 1966.67 1200.00 102 462 265 1.715 2000.000 0.000 1.715 3000.000 0.000 0.516
119 1983.34 1200.00 90 395 216 1.715 2000.000 0.000 1.715 3000.000 0.000 0.516
