# BinNR microsec tot-time (s)  O-Beam H-beam AUX Ampl1(V) f1(Hz) phase1(deg) Ampl1(V) f1(Hz) phase1(deg) chi(pos)
0 0.00 1200.00 93 438 274 1.715 2000.000 0.000 1.715 3000.000 0.000 -1.208
1 16.67 1200.00 101 384 226 1.715 2000.000 0.000 1.715 3000.000 0.000 -1.208
2 33.33 1200.00 99 427 229 1.715 2000.000 0.000 1.715 3000.000 0.000 -1.208
3 50.00 1200.00 96 465 240 1.715 2000.000 0.000 1.715 3000.000 0.000 -1.208
4 66.67 1200.00 76 478 244 1.715 2000.000 0.000 1.715 3000.000 0.000 -1.208
5 83.33 1200.00 95 488 247 1.715 2000.000 0.000 1.715 3000.000 0.000 -1.208
6 100.00 1200.00 83 500 254 1.715 2000.000 0.000 1.715 3000.000 0.000 -1.208
7 116.67 1200.00 109 476 241 1.715 2000.000 0.000 1.715 3000.000 0.000 -1.208
8 133.33 1200.00 90 492 265 1.715 2000.000 0.000 1.715 3000.000 0.000 -1.208
9 150.00 1200.00 97 469 254 1.715 2000.000 0.000 1.715 3000.000 0.000 -1.208
10 166.67 1200.00 90 471 266 1.715 2000.000 0.000 1.715 3000.000 0.000 -1.208
11 183.33 1200.00 88 454 269 1.715 2000.000 0.000 1.715 3000.000 0.000 -1.208
12 200.00 1200.00 76 443 258 1.715 2000.000 0.000 1.715 3000.000 0.000 -1.208
13 216.67 1200.00 70 435 222 1.715 2000.000 0.000 1.715 3000.000 0.000 -1.208
14 233.33 1200.00 69 400 282 1.715 2000.000 0.000 1.715 3000.000 0.000 -1.208
15 250.00 1200.00 87 409 274 1.715 2000.000 0.000 1.715 3000.000 0.000 -1.208
16 266.67 1200.00 75 401 234 1.715 2000.000 0.000 1.715 3000.000 0.000 -1.208
17 283.33 1200.00 94 443 241 1.715 2000.000 0.000 1.715 3000.000 0.000 -1.208
18 300.00 1200.00 96 381 247 1.715 2000.000 0.000 1.715 3000.000 0.000 -1.208
19 316.67 1200.00 101 411 241 1.715 2000.000 0.000 1.715 3000.000 0.000 -1.208
20 333.33 1200.00 84 396 230 1.715 2000.000 0.000 1.715 3000.000 0.000 -1.208
21 350.00 1200.00 68 384 244 1.715 2000.000 0.000 1.715 3000.000 0.000 -1.208
22 366.67 1200.00 99 429 251 1.715 2000.000 0.000 1.715 3000.000 0.000 -1.208
23 383.33 1200.00 67 382 271 1.715 2000.000 0.000 1.715 3000.000 0.000 -1.208
24 400.00 1200.00 69 444 224 1.715 2000.000 0.000 1.715 3000.000 0.000 -1.208
25 416.67 1200.00 72 380 252 1.715 2000.000 0.000 1.715 3000.000 0.000 -1.208
26 433.33 1200.00 84 388 194 1.715 2000.000 0.000 1.715 3000.000 0.000 -1.208
27 450.00 1200.00 75 416 199 1.715 2000.000 0.000 1.715 3000.000 0.000 -1.208
28 466.67 1200.00 103 420 211 1.715 2000.000 0.000 1.715 3000.000 0.000 -1.208
29 483.33 1200.00 100 463 201 1.715 2000.000 0.000 1.715 3000.000 0.000 -1.208
30 500.00 1200.00 83 419 160 1.715 2000.000 0.000 1.715 3000.000 0.000 -1.208
31 516.67 1200.00 94 433 170 1.715 2000.000 0.000 1.715 3000.000 0.000 -1.208
32 533.33 1200.00 89 434 191 1.715 2000.000 0.000 1.715 3000.000 0.000 -1.208
33 550.00 1200.00 79 421 219 1.715 2000.000 0.000 1.715 3000.000 0.000 -1.208
34 566.67 1200.00 94 404 214 1.715 2000.000 0.000 1.715 3000.000 0.000 -1.208
35 583.33 1200.00 95 389 246 1.715 2000.000 0.000 1.715 3000.000 0.000 -1.208
36 600.00 1200.00 74 420 266 1.715 2000.000 0.000 1.715 3000.000 0.000 -1.208
37 616.67 1200.00 69 442 225 1.715 2000.000 0.000 1.715 3000.000 0.000 -1.208
38 633.33 1200.00 77 433 204 1.715 2000.000 0.000 1.715 3000.000 0.000 -1.208
39 650.00 1200.00 86 415 225 1.715 2000.000 0.000 1.715 3000.000 0.000 -1.208
40 666.67 1200.00 94 499 162 1.715 2000.000 0.000 1.715 3000.000 0.000 -1.208
41 683.33 1200.00 92 478 193 1.715 2000.000 0.000 1.715 3000.000 0.000 -1.208
42 700.00 1200.00 88 555 181 1.715 2000.000 0.000 1.715 3000.000 0.000 -1.208
43 716.67 1200.00 103 518 188 1.715 2000.000 0.000 1.715 3000.000 0.000 -1.208
44 733.33 1200.00 85 519 203 1.715 2000.000 0.000 1.715 3000.000 0.000 -1.208
45 750.00 1200.00 115 504 194 1.715 2000.000 0.000 1.715 3000.000 0.000 -1.208
46 766.67 1200.00 123 496 257 1.715 2000.000 0.000 1.715 3000.000 0.000 -1.208
47 783.33 1200.00 105 427 257 1.715 2000.000 0.000 1.715 3000.000 0.000 -1.208
48 800.00 1200.00 108 387 249 1.715 2000.000 0.000 1.715 3000.000 0.000 -1.208
49 816.67 1200.00 105 402 234 1.715 2000.000 0.000 1.715 3000.000 0.000 -1.208
50 833.34 1200.00 94 414 199 1.715 2000.000 0.000 1.715 3000.000 0.000 -1.208
51 850.00 1200.00 101 456 202 1.715 2000.000 0.000 1.715 3000.000 0.000 -1.208
52 866.67 1200.00 102 460 180 1.715 2000.000 0.000 1.715 3000.000 0.000 -1.208
53 883.34 1200.00 102 519 199 1.715 2000.000 0.000 1.715 3000.000 0.000 -1.208
54 900.00 1200.00 104 528 202 1.715 2000.000 0.000 1.715 3000.000 0.000 -1.208
55 916.67 1200.00 99 532 218 1.715 2000.000 0.000 1.715 3000.000 0.000 -1.208
56 933.34 1200.00 109 473 222 1.715 2000.000 0.000 1.715 3000.000 0.000 -1.208
57 950.00 1200.00 107 508 236 1.715 2000.000 0.000 1.715 3000.000 0.000 -1.208
58 966.67 1200.00 111 457 259 1.715 2000.000 0.000 1.715 3000.000 0.000 -1.208
59 983.34 1200.00 101 423 277 1.715 2000.000 0.000 1.715 3000.000 0.000 -1.208
60 1000.00 1200.00 103 390 266 1.715 2000.000 0.000 1.715 3000.000 0.000 -1.208
61 1016.67 1200.00 93 405 236 1.715 2000.000 0.000 1.715 3000.000 0.000 -1.208
62 1033.34 1200.00 90 454 266 1.715 2000.000 0.000 1.715 3000.000 0.000 -1.208
63 1050.00 1200.00 110 427 222 1.715 2000.000 0.000 1.715 3000.000 0.000 -1.208
64 1066.67 1200.00 96 511 231 1.715 2000.000 0.000 1.715 3000.000 0.000 -1.208
65 1083.34 1200.00 117 487 237 1.715 2000.000 0.000 1.715 3000.000 0.000 -1.208
66 1100.00 1200.00 97 511 246 1.715 2000.000 0.000 1.715 3000.000 0.000 -1.208
67 1116.67 1200.00 101 504 267 1.715 2000.000 0.000 1.715 3000.000 0.000 -1.208
68 1133.34 1200.00 108 518 252 1.715 2000.000 0.000 1.715 3000.000 0.000 -1.208
69 1150.00 1200.00 106 470 255 1.715 2000.000 0.000 1.715 3000.000 0.000 -1.208
70 1166.67 1200.00 89 413 241 1.715 2000.000 0.000 1.715 3000.000 0.000 -1.208
71 1183.34 1200.00 74 429 242 1.715 2000.000 0.000 1.715 3000.000 0.000 -1.208
72 1200.00 1200.00 66 396 263 1.715 2000.000 0.000 1.715 3000.000 0.000 -1.208
73 1216.67 1200.00 63 425 255 1.715 2000.000 0.000 1.715 3000.000 0.000 -1.208
74 1233.34 1200.00 69 419 255 1.715 2000.000 0.000 1.715 3000.000 0.000 -1.208
75 1250.00 1200.00 80 401 248 1.715 2000.000 0.000 1.715 3000.000 0.000 -1.208
76 1266.67 1200.00 85 431 228 1.715 2000.000 0.000 1.715 3000.000 0.000 -1.208
77 1283.34 1200.00 117 460 241 1.715 2000.000 0.000 1.715 3000.000 0.000 -1.208
78 1300.00 1200.00 81 412 213 1.715 2000.000 0.000 1.715 3000.000 0.000 -1.208
79 1316.67 1200.00 92 430 244 1.715 2000.000 0.000 1.715 3000.000 0.000 -1.208
80 1333.34 1200.00 110 403 245 1.715 2000.000 0.000 1.715 3000.000 0.000 -1.208
81 1350.00 1200.00 104 364 258 1.715 2000.000 0.000 1.715 3000.000 0.000 -1.208
82 1366.67 1200.00 85 383 251 1.715 2000.000 0.000 1.715 3000.000 0.000 -1.208
83 1383.34 1200.00 75 418 237 1.715 2000.000 0.000 1.715 3000.000 0.000 -1.208
84 1400.00 1200.00 68 425 221 1.715 2000.000 0.000 1.715 3000.000 0.000 -1.208
85 1416.67 1200.00 66 390 257 1.715 2000.000 0.000 1.715 3000.000 0.000 -1.208
86 1433.34 1200.00 67 361 218 1.715 2000.000 0.000 1.715 3000.000 0.000 -1.208
87 1450.00 1200.00 88 409 230 1.715 2000.000 0.000 1.715 3000.000 0.000 -1.208
88 1466.67 1200.00 92 429 192 1.715 2000.000 0.000 1.715 3000.000 0.000 -1.208
89 1483.34 1200.00 103 410 168 1.715 2000.000 0.000 1.715 3000.000 0.000 -1.208
90 1500.00 1200.00 100 413 175 1.715 2000.000 0.000 1.715 3000.000 0.000 -1.208
91 1516.67 1200.00 84 432 163 1.715 2000.000 0.000 1.715 3000.000 0.000 -1.208
92 1533.34 1200.00 91 404 183 1.715 2000.000 0.000 1.715 3000.000 0.000 -1.208
93 1550.00 1200.00 99 414 206 1.715 2000.000 0.000 1.715 3000.000 0.000 -1.208
94 1566.67 1200.00 78 418 244 1.715 2000.000 0.000 1.715 3000.000 0.000 -1.208
95 1583.34 1200.00 79 415 241 1.715 2000.000 0.000 1.715 3000.000 0.000 -1.208
96 1600.00 1200.00 84 416 256 1.715 2000.000 0.000 1.715 3000.000 0.000 -1.208
97 1616.67 1200.00 81 391 233 1.715 2000.000 0.000 1.715 3000.000 0.000 -1.208
98 1633.34 1200.00 88 386 229 1.715 2000.000 0.000 1.715 3000.000 0.000 -1.208
99 1650.00 1200.00 111 468 189 1.715 2000.000 0.000 1.715 3000.000 0.000 -1.208
100 1666.67 1200.00 103 490 177 1.715 2000.000 0.000 1.715 3000.000 0.000 -1.208
101 1683.34 1200.00 91 511 158 1.715 2000.000 0.000 1.715 3000.000 0.000 -1.208
102 1700.00 1200.00 82 515 167 1.715 2000.000 0.000 1.715 3000.000 0.000 -1.208
103 1716.67 1200.00 99 566 175 1.715 2000.000 0.000 1.715 3000.000 0.000 -1.208
104 1733.34 1200.00 76 499 217 1.715 2000.000 0.000 1.715 3000.000 0.000 -1.208
105 1750.00 1200.00 107 478 230 1.715 2000.000 0.000 1.715 3000.000 0.000 -1.208
106 1766.67 1200.00 99 457 211 1.715 2000.000 0.000 1.715 3000.000 0.000 -1.208
107 1783.34 1200.00 122 429 223 1.715 2000.000 0.000 1.715 3000.000 0.000 -1.208
108 1800.00 1200.00 83 430 261 1.715 2000.000 0.000 1.715 3000.000 0.000 -1.208
109 1816.67 1200.00 99 426 259 1.715 2000.000 0.000 1.715 3000.000 0.000 -1.208
110 1833.34 1200.00 128 456 221 1.715 2000.000 0.000 1.715 3000.000 0.000 -1.208
111 1850.00 1200.00 94 405 212 1.715 2000.000 0.000 1.715 3000.000 0.000 -1.208
112 1866.67 1200.00 102 475 200 1.715 2000.000 0.000 1.715 3000.000 0.000 -1.208
113 1883.34 1200.00 99 495 195 1.715 2000.000 0.000 1.715 3000.000 0.000 -1.208
114 1900.00 1200.00 116 528 203 1.715 2000.000 0.000 1.715 3000.000 0.000 -1.208
115 1916.67 1200.00 90 568 208 1.715 2000.000 0.000 1.715 3000.000 0.000 -1.208
116 1933.34 1200.00 95 523 220 1.715 2000.000 0.000 1.715 3000.000 0.000 -1.208
117 1950.00 1200.00 109 500 221 1.715 2000.000 0.000 1.715 3000.000 0.000 -1.208
118 1966.67 1200.00 84 453 291 1.715 2000.000 0.000 1.715 3000.000 0.000 -1.208
119 1983.34 1200.00 83 451 233 1.715 2000.000 0.000 1.715 3000.000 0.000 -1.208
