# BinNR microsec tot-time (s)  O-Beam H-beam AUX Ampl1(V) f1(Hz) phase1(deg) Ampl1(V) f1(Hz) phase1(deg) chi(pos)
0 0.00 1200.00 92 400 270 1.715 2000.000 0.000 1.715 3000.000 0.000 -1.505
1 16.67 1200.00 106 402 249 1.715 2000.000 0.000 1.715 3000.000 0.000 -1.505
2 33.33 1200.00 75 409 234 1.715 2000.000 0.000 1.715 3000.000 0.000 -1.505
3 50.00 1200.00 96 412 248 1.715 2000.000 0.000 1.715 3000.000 0.000 -1.505
4 66.67 1200.00 107 515 245 1.715 2000.000 0.000 1.715 3000.000 0.000 -1.505
5 83.33 1200.00 117 541 226 1.715 2000.000 0.000 1.715 3000.000 0.000 -1.505
6 100.00 1200.00 104 476 229 1.715 2000.000 0.000 1.715 3000.000 0.000 -1.505
7 116.67 1200.00 94 464 234 1.715 2000.000 0.000 1.715 3000.000 0.000 -1.505
8 133.33 1200.00 90 500 259 1.715 2000.000 0.000 1.715 3000.000 0.000 -1.505
9 150.00 1200.00 82 464 264 1.715 2000.000 0.000 1.715 3000.000 0.000 -1.505
10 166.67 1200.00 86 430 224 1.715 2000.000 0.000 1.715 3000.000 0.000 -1.505
11 183.33 1200.00 67 424 236 1.715 2000.000 0.000 1.715 3000.000 0.000 -1.505
12 200.00 1200.00 47 434 231 1.715 2000.000 0.000 1.715 3000.000 0.000 -1.505
13 216.67 1200.00 59 400 269 1.715 2000.000 0.000 1.715 3000.000 0.000 -1.505
14 233.33 1200.00 71 421 259 1.715 2000.000 0.000 1.715 3000.000 0.000 -1.505
15 250.00 1200.00 73 424 252 1.715 2000.000 0.000 1.715 3000.000 0.000 -1.505
16 266.67 1200.00 87 424 230 1.715 2000.000 0.000 1.715 3000.000 0.000 -1.505
17 283.33 1200.00 95 425 204 1.715 2000.000 0.000 1.715 3000.000 0.000 -1.505
18 300.00 1200.00 96 394 249 1.715 2000.000 0.000 1.715 3000.000 0.000 -1.505
19 316.67 1200.00 88 408 216 1.715 2000.000 0.000 1.715 3000.000 0.000 -1.505
20 333.33 1200.00 81 454 237 1.715 2000.000 0.000 1.715 3000.000 0.000 -1.505
21 350.00 1200.00 97 417 221 1.715 2000.000 0.000 1.715 3000.000 0.000 -1.505
22 366.67 1200.00 61 402 254 1.715 2000.000 0.000 1.715 3000.000 0.000 -1.505
23 383.33 1200.00 81 403 259 1.715 2000.000 0.000 1.715 3000.000 0.000 -1.505
24 400.00 1200.00 57 379 254 1.715 2000.000 0.000 1.715 3000.000 0.000 -1.505
25 416.67 1200.00 69 423 214 1.715 2000.000 0.000 1.715 3000.000 0.000 -1.505
26 433.33 1200.00 83 401 236 1.715 2000.000 0.000 1.715 3000.000 0.000 -1.505
27 450.00 1200.00 75 428 208 1.715 2000.000 0.000 1.715 3000.000 0.000 -1.505
28 466.67 1200.00 90 429 182 1.715 2000.000 0.000 1.715 3000.000 0.000 -1.505
29 483.33 1200.00 101 393 172 1.715 2000.000 0.000 1.715 3000.000 0.000 -1.505
30 500.00 1200.00 104 419 176 1.715 2000.000 0.000 1.715 3000.000 0.000 -1.505
31 516.67 1200.00 90 437 190 1.715 2000.000 0.000 1.715 3000.000 0.000 -1.505
32 533.33 1200.00 96 476 178 1.715 2000.000 0.000 1.715 3000.000 0.000 -1.505
33 550.00 1200.00 98 449 185 1.715 2000.000 0.000 1.715 3000.000 0.000 -1.505
34 566.67 1200.00 80 405 233 1.715 2000.000 0.000 1.715 3000.000 0.000 -1.505
35 583.33 1200.00 64 397 257 1.715 2000.000 0.000 1.715 3000.000 0.000 -1.505
36 600.00 1200.00 90 397 242 1.715 2000.000 0.000 1.715 3000.000 0.000 -1.505
37 616.67 1200.00 64 444 229 1.715 2000.000 0.000 1.715 3000.000 0.000 -1.505
38 633.33 1200.00 86 419 221 1.715 2000.000 0.000 1.715 3000.000 0.000 -1.505
39 650.00 1200.00 92 428 204 1.715 2000.000 0.000 1.715 3000.000 0.000 -1.505
40 666.67 1200.00 78 473 178 1.715 2000.000 0.000 1.715 3000.000 0.000 -1.505
41 683.33 1200.00 96 528 144 1.715 2000.000 0.000 1.715 3000.000 0.000 -1.505
42 700.00 1200.00 104 560 167 1.715 2000.000 0.000 1.715 3000.000 0.000 -1.505
43 716.67 1200.00 107 538 175 1.715 2000.000 0.000 1.715 3000.000 0.000 -1.505
44 733.33 1200.00 91 517 201 1.715 2000.000 0.000 1.715 3000.000 0.000 -1.505
45 750.00 1200.00 99 504 243 1.715 2000.000 0.000 1.715 3000.000 0.000 -1.505
46 766.67 1200.00 95 462 255 1.715 2000.000 0.000 1.715 3000.000 0.000 -1.505
47 783.33 1200.00 92 460 216 1.715 2000.000 0.000 1.715 3000.000 0.000 -1.505
48 800.00 1200.00 99 404 262 1.715 2000.000 0.000 1.715 3000.000 0.000 -1.505
49 816.67 1200.00 98 431 205 1.715 2000.000 0.000 1.715 3000.000 0.000 -1.505
50 833.34 1200.00 99 401 219 1.715 2000.000 0.000 1.715 3000.000 0.000 -1.505
51 850.00 1200.00 98 457 197 1.715 2000.000 0.000 1.715 3000.000 0.000 -1.505
52 866.67 1200.00 90 494 178 1.715 2000.000 0.000 1.715 3000.000 0.000 -1.505
53 883.34 1200.00 117 484 177 1.715 2000.000 0.000 1.715 3000.000 0.000 -1.505
54 900.00 1200.00 93 540 208 1.715 2000.000 0.000 1.715 3000.000 0.000 -1.505
55 916.67 1200.00 124 511 209 1.715 2000.000 0.000 1.715 3000.000 0.000 -1.505
56 933.34 1200.00 118 510 208 1.715 2000.000 0.000 1.715 3000.000 0.000 -1.505
57 950.00 1200.00 109 464 231 1.715 2000.000 0.000 1.715 3000.000 0.000 -1.505
58 966.67 1200.00 105 451 246 1.715 2000.000 0.000 1.715 3000.000 0.000 -1.505
59 983.34 1200.00 97 409 260 1.715 2000.000 0.000 1.715 3000.000 0.000 -1.505
60 1000.00 1200.00 98 423 230 1.715 2000.000 0.000 1.715 3000.000 0.000 -1.505
61 1016.67 1200.00 96 412 268 1.715 2000.000 0.000 1.715 3000.000 0.000 -1.505
62 1033.34 1200.00 123 462 238 1.715 2000.000 0.000 1.715 3000.000 0.000 -1.505
63 1050.00 1200.00 106 436 229 1.715 2000.000 0.000 1.715 3000.000 0.000 -1.505
64 1066.67 1200.00 117 486 247 1.715 2000.000 0.000 1.715 3000.000 0.000 -1.505
65 1083.34 1200.00 108 464 244 1.715 2000.000 0.000 1.715 3000.000 0.000 -1.505
66 1100.00 1200.00 108 525 258 1.715 2000.000 0.000 1.715 3000.000 0.000 -1.505
67 1116.67 1200.00 92 462 246 1.715 2000.000 0.000 1.715 3000.000 0.000 -1.505
68 1133.34 1200.00 86 460 231 1.715 2000.000 0.000 1.715 3000.000 0.000 -1.505
69 1150.00 1200.00 87 492 236 1.715 2000.000 0.000 1.715 3000.000 0.000 -1.505
70 1166.67 1200.00 62 458 273 1.715 2000.000 0.000 1.715 3000.000 0.000 -1.505
71 1183.34 1200.00 80 451 256 1.715 2000.000 0.000 1.715 3000.000 0.000 -1.505
72 1200.00 1200.00 71 413 227 1.715 2000.000 0.000 1.715 3000.000 0.000 -1.505
73 1216.67 1200.00 76 405 266 1.715 2000.000 0.000 1.715 3000.000 0.000 -1.505
74 1233.34 1200.00 65 399 237 1.715 2000.000 0.000 1.715 3000.000 0.000 -1.505
75 1250.00 1200.00 83 397 262 1.715 2000.000 0.000 1.715 3000.000 0.000 -1.505
76 1266.67 1200.00 74 438 252 1.715 2000.000 0.000 1.715 3000.000 0.000 -1.505
77 1283.34 1200.00 104 399 249 1.715 2000.000 0.000 1.715 3000.000 0.000 -1.505
78 1300.00 1200.00 89 421 234 1.715 2000.000 0.000 1.715 3000.000 0.000 -1.505
79 1316.67 1200.00 96 446 206 1.715 2000.000 0.000 1.715 3000.000 0.000 -1.505
80 1333.34 1200.00 85 347 230 1.715 2000.000 0.000 1.715 3000.000 0.000 -1.505
81 1350.00 1200.00 79 401 244 1.715 2000.000 0.000 1.715 3000.000 0.000 -1.505
82 1366.67 1200.00 67 404 276 1.715 2000.000 0.000 1.715 3000.000 0.000 -1.505
83 1383.34 1200.00 79 403 228 1.715 2000.000 0.000 1.715 3000.000 0.000 -1.505
84 1400.00 1200.00 80 394 257 1.715 2000.000 0.000 1.715 3000.000 0.000 -1.505
85 1416.67 1200.00 62 442 215 1.715 2000.000 0.000 1.715 3000.000 0.000 -1.505
86 1433.34 1200.00 86 413 206 1.715 2000.000 0.000 1.715 3000.000 0.000 -1.505
87 1450.00 1200.00 89 392 211 1.715 2000.000 0.000 1.715 3000.000 0.000 -1.505
88 1466.67 1200.00 92 403 199 1.715 2000.000 0.000 1.715 3000.000 0.000 -1.505
89 1483.34 1200.00 100 434 170 1.715 2000.000 0.000 1.715 3000.000 0.000 -1.505
90 1500.00 1200.00 109 434 164 1.715 2000.000 0.000 1.715 3000.000 0.000 -1.505
91 1516.67 1200.00 85 431 164 1.715 2000.000 0.000 1.715 3000.000 0.000 -1.505
92 1533.34 1200.00 87 452 179 1.715 2000.000 0.000 1.715 3000.000 0.000 -1.505
93 1550.00 1200.00 87 412 213 1.715 2000.000 0.000 1.715 3000.000 0.000 -1.505
94 1566.67 1200.00 101 433 231 1.715 2000.000 0.000 1.715 3000.000 0.000 -1.505
95 1583.34 1200.00 87 384 226 1.715 2000.000 0.000 1.715 3000.000 0.000 -1.505
96 1600.00 1200.00 77 412 256 1.715 2000.000 0.000 1.715 3000.000 0.000 -1.505
97 1616.67 1200.00 79 417 238 1.715 2000.000 0.000 1.715 3000.000 0.000 -1.505
98 1633.34 1200.00 81 385 224 1.715 2000.000 0.000 1.715 3000.000 0.000 -1.505
99 1650.00 1200.00 78 442 189 1.715 2000.000 0.000 1.715 3000.000 0.000 -1.505
100 1666.67 1200.00 86 494 187 1.715 2000.000 0.000 1.715 3000.000 0.000 -1.505
101 1683.34 1200.00 97 534 167 1.715 2000.000 0.000 1.715 3000.000 0.000 -1.505
102 1700.00 1200.00 122 534 187 1.715 2000.000 0.000 1.715 3000.000 0.000 -1.505
103 1716.67 1200.00 100 539 177 1.715 2000.000 0.000 1.715 3000.000 0.000 -1.505
104 1733.34 1200.00 84 531 180 1.715 2000.000 0.000 1.715 3000.000 0.000 -1.505
105 1750.00 1200.00 115 500 214 1.715 2000.000 0.000 1.715 3000.000 0.000 -1.505
106 1766.67 1200.00 108 478 234 1.715 2000.000 0.000 1.715 3000.000 0.000 -1.505
107 1783.34 1200.00 103 443 241 1.715 2000.000 0.000 1.715 3000.000 0.000 -1.505
108 1800.00 1200.00 86 388 217 1.715 2000.000 0.000 1.715 3000.000 0.000 -1.505
109 1816.67 1200.00 109 396 214 1.715 2000.000 0.000 1.715 3000.000 0.000 -1.505
110 1833.34 1200.00 99 420 216 1.715 2000.000 0.000 1.715 3000.000 0.000 -1.505
111 1850.00 1200.00 86 434 197 1.715 2000.000 0.000 1.715 3000.000 0.000 -1.505
112 1866.67 1200.00 112 487 192 1.715 2000.000 0.000 1.715 3000.000 0.000 -1.505
113 1883.34 1200.00 90 516 198 1.715 2000.000 0.000 1.715 3000.000 0.000 -1.505
114 1900.00 1200.00 109 540 191 1.715 2000.000 0.000 1.715 3000.000 0.000 -1.505
115 1916.67 1200.00 98 517 199 1.715 2000.000 0.000 1.715 3000.000 0.000 -1.505
116 1933.34 1200.00 105 478 205 1.715 2000.000 0.000 1.715 3000.000 0.000 -1.505
117 1950.00 1200.00 84 507 213 1.715 2000.000 0.000 1.715 3000.000 0.000 -1.505
118 1966.67 1200.00 96 464 246 1.715 2000.000 0.000 1.715 3000.000 0.000 -1.505
119 1983.34 1200.00 106 390 222 1.715 2000.000 0.000 1.715 3000.000 0.000 -1.505
