# BinNR microsec tot-time (s)  O-Beam H-beam AUX Ampl1(V) f1(Hz) phase1(deg) Ampl1(V) f1(Hz) phase1(deg) chi(pos)
0 0.00 1200.00 67 565 145 1.715 2000.000 0.000 1.715 3000.000 0.000 1.208
1 16.67 1200.00 76 551 153 1.715 2000.000 0.000 1.715 3000.000 0.000 1.208
2 33.33 1200.00 75 578 170 1.715 2000.000 0.000 1.715 3000.000 0.000 1.208
3 50.00 1200.00 80 578 156 1.715 2000.000 0.000 1.715 3000.000 0.000 1.208
4 66.67 1200.00 65 549 161 1.715 2000.000 0.000 1.715 3000.000 0.000 1.208
5 83.33 1200.00 74 573 144 1.715 2000.000 0.000 1.715 3000.000 0.000 1.208
6 100.00 1200.00 58 588 165 1.715 2000.000 0.000 1.715 3000.000 0.000 1.208
7 116.67 1200.00 65 550 144 1.715 2000.000 0.000 1.715 3000.000 0.000 1.208
8 133.33 1200.00 55 525 161 1.715 2000.000 0.000 1.715 3000.000 0.000 1.208
9 150.00 1200.00 58 562 185 1.715 2000.000 0.000 1.715 3000.000 0.000 1.208
10 166.67 1200.00 64 547 139 1.715 2000.000 0.000 1.715 3000.000 0.000 1.208
11 183.33 1200.00 70 566 163 1.715 2000.000 0.000 1.715 3000.000 0.000 1.208
12 200.00 1200.00 61 566 145 1.715 2000.000 0.000 1.715 3000.000 0.000 1.208
13 216.67 1200.00 51 557 138 1.715 2000.000 0.000 1.715 3000.000 0.000 1.208
14 233.33 1200.00 66 580 139 1.715 2000.000 0.000 1.715 3000.000 0.000 1.208
15 250.00 1200.00 64 582 147 1.715 2000.000 0.000 1.715 3000.000 0.000 1.208
16 266.67 1200.00 68 552 155 1.715 2000.000 0.000 1.715 3000.000 0.000 1.208
17 283.33 1200.00 67 528 124 1.715 2000.000 0.000 1.715 3000.000 0.000 1.208
18 300.00 1200.00 55 576 135 1.715 2000.000 0.000 1.715 3000.000 0.000 1.208
19 316.67 1200.00 53 584 168 1.715 2000.000 0.000 1.715 3000.000 0.000 1.208
20 333.33 1200.00 63 523 155 1.715 2000.000 0.000 1.715 3000.000 0.000 1.208
21 350.00 1200.00 72 545 158 1.715 2000.000 0.000 1.715 3000.000 0.000 1.208
22 366.67 1200.00 66 553 160 1.715 2000.000 0.000 1.715 3000.000 0.000 1.208
23 383.33 1200.00 70 544 155 1.715 2000.000 0.000 1.715 3000.000 0.000 1.208
24 400.00 1200.00 72 589 168 1.715 2000.000 0.000 1.715 3000.000 0.000 1.208
25 416.67 1200.00 88 570 165 1.715 2000.000 0.000 1.715 3000.000 0.000 1.208
26 433.33 1200.00 72 569 164 1.715 2000.000 0.000 1.715 3000.000 0.000 1.208
27 450.00 1200.00 71 583 141 1.715 2000.000 0.000 1.715 3000.000 0.000 1.208
28 466.67 1200.00 75 605 155 1.715 2000.000 0.000 1.715 3000.000 0.000 1.208
29 483.33 1200.00 65 565 158 1.715 2000.000 0.000 1.715 3000.000 0.000 1.208
30 500.00 1200.00 53 588 141 1.715 2000.000 0.000 1.715 3000.000 0.000 1.208
31 516.67 1200.00 68 616 151 1.715 2000.000 0.000 1.715 3000.000 0.000 1.208
32 533.33 1200.00 64 568 162 1.715 2000.000 0.000 1.715 3000.000 0.000 1.208
33 550.00 1200.00 63 529 155 1.715 2000.000 0.000 1.715 3000.000 0.000 1.208
34 566.67 1200.00 62 563 139 1.715 2000.000 0.000 1.715 3000.000 0.000 1.208
35 583.33 1200.00 64 558 153 1.715 2000.000 0.000 1.715 3000.000 0.000 1.208
36 600.00 1200.00 63 588 148 1.715 2000.000 0.000 1.715 3000.000 0.000 1.208
37 616.67 1200.00 71 551 154 1.715 2000.000 0.000 1.715 3000.000 0.000 1.208
38 633.33 1200.00 50 582 147 1.715 2000.000 0.000 1.715 3000.000 0.000 1.208
39 650.00 1200.00 68 539 144 1.715 2000.000 0.000 1.715 3000.000 0.000 1.208
40 666.67 1200.00 72 569 142 1.715 2000.000 0.000 1.715 3000.000 0.000 1.208
41 683.33 1200.00 58 546 154 1.715 2000.000 0.000 1.715 3000.000 0.000 1.208
42 700.00 1200.00 62 537 165 1.715 2000.000 0.000 1.715 3000.000 0.000 1.208
43 716.67 1200.00 56 590 139 1.715 2000.000 0.000 1.715 3000.000 0.000 1.208
44 733.33 1200.00 55 583 169 1.715 2000.000 0.000 1.715 3000.000 0.000 1.208
45 750.00 1200.00 73 526 160 1.715 2000.000 0.000 1.715 3000.000 0.000 1.208
46 766.67 1200.00 43 549 164 1.715 2000.000 0.000 1.715 3000.000 0.000 1.208
47 783.33 1200.00 68 568 138 1.715 2000.000 0.000 1.715 3000.000 0.000 1.208
48 800.00 1200.00 52 566 164 1.715 2000.000 0.000 1.715 3000.000 0.000 1.208
49 816.67 1200.00 62 602 159 1.715 2000.000 0.000 1.715 3000.000 0.000 1.208
50 833.34 1200.00 70 547 147 1.715 2000.000 0.000 1.715 3000.000 0.000 1.208
51 850.00 1200.00 48 531 155 1.715 2000.000 0.000 1.715 3000.000 0.000 1.208
52 866.67 1200.00 50 532 152 1.715 2000.000 0.000 1.715 3000.000 0.000 1.208
53 883.34 1200.00 59 612 156 1.715 2000.000 0.000 1.715 3000.000 0.000 1.208
54 900.00 1200.00 59 608 134 1.715 2000.000 0.000 1.715 3000.000 0.000 1.208
55 916.67 1200.00 65 531 163 1.715 2000.000 0.000 1.715 3000.000 0.000 1.208
56 933.34 1200.00 57 563 164 1.715 2000.000 0.000 1.715 3000.000 0.000 1.208
57 950.00 1200.00 65 536 154 1.715 2000.000 0.000 1.715 3000.000 0.000 1.208
58 966.67 1200.00 70 524 151 1.715 2000.000 0.000 1.715 3000.000 0.000 1.208
59 983.34 1200.00 55 570 166 1.715 2000.000 0.000 1.715 3000.000 0.000 1.208
60 1000.00 1200.00 59 554 145 1.715 2000.000 0.000 1.715 3000.000 0.000 1.208
61 1016.67 1200.00 64 575 135 1.715 2000.000 0.000 1.715 3000.000 0.000 1.208
62 1033.34 1200.00 57 545 163 1.715 2000.000 0.000 1.715 3000.000 0.000 1.208
63 1050.00 1200.00 61 538 130 1.715 2000.000 0.000 1.715 3000.000 0.000 1.208
64 1066.67 1200.00 69 592 166 1.715 2000.000 0.000 1.715 3000.000 0.000 1.208
65 1083.34 1200.00 62 588 149 1.715 2000.000 0.000 1.715 3000.000 0.000 1.208
66 1100.00 1200.00 66 580 164 1.715 2000.000 0.000 1.715 3000.000 0.000 1.208
67 1116.67 1200.00 67 542 153 1.715 2000.000 0.000 1.715 3000.000 0.000 1.208
68 1133.34 1200.00 60 590 153 1.715 2000.000 0.000 1.715 3000.000 0.000 1.208
69 1150.00 1200.00 68 538 125 1.715 2000.000 0.000 1.715 3000.000 0.000 1.208
70 1166.67 1200.00 74 542 143 1.715 2000.000 0.000 1.715 3000.000 0.000 1.208
71 1183.34 1200.00 61 604 163 1.715 2000.000 0.000 1.715 3000.000 0.000 1.208
72 1200.00 1200.00 49 547 149 1.715 2000.000 0.000 1.715 3000.000 0.000 1.208
73 1216.67 1200.00 67 555 147 1.715 2000.000 0.000 1.715 3000.000 0.000 1.208
74 1233.34 1200.00 62 558 155 1.715 2000.000 0.000 1.715 3000.000 0.000 1.208
75 1250.00 1200.00 73 547 141 1.715 2000.000 0.000 1.715 3000.000 0.000 1.208
76 1266.67 1200.00 58 606 158 1.715 2000.000 0.000 1.715 3000.000 0.000 1.208
77 1283.34 1200.00 66 560 173 1.715 2000.000 0.000 1.715 3000.000 0.000 1.208
78 1300.00 1200.00 51 547 139 1.715 2000.000 0.000 1.715 3000.000 0.000 1.208
79 1316.67 1200.00 51 595 171 1.715 2000.000 0.000 1.715 3000.000 0.000 1.208
80 1333.34 1200.00 58 554 135 1.715 2000.000 0.000 1.715 3000.000 0.000 1.208
81 1350.00 1200.00 56 534 136 1.715 2000.000 0.000 1.715 3000.000 0.000 1.208
82 1366.67 1200.00 65 546 145 1.715 2000.000 0.000 1.715 3000.000 0.000 1.208
83 1383.34 1200.00 70 579 146 1.715 2000.000 0.000 1.715 3000.000 0.000 1.208
84 1400.00 1200.00 74 524 140 1.715 2000.000 0.000 1.715 3000.000 0.000 1.208
85 1416.67 1200.00 47 562 162 1.715 2000.000 0.000 1.715 3000.000 0.000 1.208
86 1433.34 1200.00 67 605 162 1.715 2000.000 0.000 1.715 3000.000 0.000 1.208
87 1450.00 1200.00 67 548 175 1.715 2000.000 0.000 1.715 3000.000 0.000 1.208
88 1466.67 1200.00 59 624 164 1.715 2000.000 0.000 1.715 3000.000 0.000 1.208
89 1483.34 1200.00 62 562 146 1.715 2000.000 0.000 1.715 3000.000 0.000 1.208
90 1500.00 1200.00 58 579 164 1.715 2000.000 0.000 1.715 3000.000 0.000 1.208
91 1516.67 1200.00 70 577 130 1.715 2000.000 0.000 1.715 3000.000 0.000 1.208
92 1533.34 1200.00 49 554 156 1.715 2000.000 0.000 1.715 3000.000 0.000 1.208
93 1550.00 1200.00 85 565 137 1.715 2000.000 0.000 1.715 3000.000 0.000 1.208
94 1566.67 1200.00 70 601 163 1.715 2000.000 0.000 1.715 3000.000 0.000 1.208
95 1583.34 1200.00 67 537 171 1.715 2000.000 0.000 1.715 3000.000 0.000 1.208
96 1600.00 1200.00 55 553 158 1.715 2000.000 0.000 1.715 3000.000 0.000 1.208
97 1616.67 1200.00 72 593 146 1.715 2000.000 0.000 1.715 3000.000 0.000 1.208
98 1633.34 1200.00 62 538 168 1.715 2000.000 0.000 1.715 3000.000 0.000 1.208
99 1650.00 1200.00 64 563 159 1.715 2000.000 0.000 1.715 3000.000 0.000 1.208
100 1666.67 1200.00 71 581 150 1.715 2000.000 0.000 1.715 3000.000 0.000 1.208
101 1683.34 1200.00 69 526 147 1.715 2000.000 0.000 1.715 3000.000 0.000 1.208
102 1700.00 1200.00 53 582 164 1.715 2000.000 0.000 1.715 3000.000 0.000 1.208
103 1716.67 1200.00 60 534 164 1.715 2000.000 0.000 1.715 3000.000 0.000 1.208
104 1733.34 1200.00 52 572 155 1.715 2000.000 0.000 1.715 3000.000 0.000 1.208
105 1750.00 1200.00 61 565 147 1.715 2000.000 0.000 1.715 3000.000 0.000 1.208
106 1766.67 1200.00 59 567 167 1.715 2000.000 0.000 1.715 3000.000 0.000 1.208
107 1783.34 1200.00 66 562 157 1.715 2000.000 0.000 1.715 3000.000 0.000 1.208
108 1800.00 1200.00 63 569 170 1.715 2000.000 0.000 1.715 3000.000 0.000 1.208
109 1816.67 1200.00 59 555 139 1.715 2000.000 0.000 1.715 3000.000 0.000 1.208
110 1833.34 1200.00 54 623 165 1.715 2000.000 0.000 1.715 3000.000 0.000 1.208
111 1850.00 1200.00 59 545 158 1.715 2000.000 0.000 1.715 3000.000 0.000 1.208
112 1866.67 1200.00 60 559 151 1.715 2000.000 0.000 1.715 3000.000 0.000 1.208
113 1883.34 1200.00 65 557 173 1.715 2000.000 0.000 1.715 3000.000 0.000 1.208
114 1900.00 1200.00 56 514 158 1.715 2000.000 0.000 1.715 3000.000 0.000 1.208
115 1916.67 1200.00 52 558 159 1.715 2000.000 0.000 1.715 3000.000 0.000 1.208
116 1933.34 1200.00 64 562 168 1.715 2000.000 0.000 1.715 3000.000 0.000 1.208
117 1950.00 1200.00 64 551 145 1.715 2000.000 0.000 1.715 3000.000 0.000 1.208
118 1966.67 1200.00 67 537 162 1.715 2000.000 0.000 1.715 3000.000 0.000 1.208
119 1983.34 1200.00 64 510 128 1.715 2000.000 0.000 1.715 3000.000 0.000 1.208
