# BinNR microsec tot-time (s)  O-Beam H-beam AUX Ampl1(V) f1(Hz) phase1(deg) Ampl1(V) f1(Hz) phase1(deg) chi(pos)
0 0.00 1200.00 76 468 198 1.715 2000.000 0.000 1.715 3000.000 0.000 0.352
1 16.67 1200.00 85 498 216 1.715 2000.000 0.000 1.715 3000.000 0.000 0.352
2 33.33 1200.00 85 516 219 1.715 2000.000 0.000 1.715 3000.000 0.000 0.352
3 50.00 1200.00 86 484 188 1.715 2000.000 0.000 1.715 3000.000 0.000 0.352
4 66.67 1200.00 74 511 211 1.715 2000.000 0.000 1.715 3000.000 0.000 0.352
5 83.33 1200.00 88 527 220 1.715 2000.000 0.000 1.715 3000.000 0.000 0.352
6 100.00 1200.00 111 518 193 1.715 2000.000 0.000 1.715 3000.000 0.000 0.352
7 116.67 1200.00 86 499 218 1.715 2000.000 0.000 1.715 3000.000 0.000 0.352
8 133.33 1200.00 93 519 207 1.715 2000.000 0.000 1.715 3000.000 0.000 0.352
9 150.00 1200.00 89 505 223 1.715 2000.000 0.000 1.715 3000.000 0.000 0.352
10 166.67 1200.00 74 485 237 1.715 2000.000 0.000 1.715 3000.000 0.000 0.352
11 183.33 1200.00 89 483 219 1.715 2000.000 0.000 1.715 3000.000 0.000 0.352
12 200.00 1200.00 78 475 221 1.715 2000.000 0.000 1.715 3000.000 0.000 0.352
13 216.67 1200.00 66 415 186 1.715 2000.000 0.000 1.715 3000.000 0.000 0.352
14 233.33 1200.00 58 454 203 1.715 2000.000 0.000 1.715 3000.000 0.000 0.352
15 250.00 1200.00 69 495 222 1.715 2000.000 0.000 1.715 3000.000 0.000 0.352
16 266.67 1200.00 81 459 208 1.715 2000.000 0.000 1.715 3000.000 0.000 0.352
17 283.33 1200.00 111 459 218 1.715 2000.000 0.000 1.715 3000.000 0.000 0.352
18 300.00 1200.00 90 502 205 1.715 2000.000 0.000 1.715 3000.000 0.000 0.352
19 316.67 1200.00 82 446 221 1.715 2000.000 0.000 1.715 3000.000 0.000 0.352
20 333.33 1200.00 97 460 205 1.715 2000.000 0.000 1.715 3000.000 0.000 0.352
21 350.00 1200.00 65 438 207 1.715 2000.000 0.000 1.715 3000.000 0.000 0.352
22 366.67 1200.00 82 455 217 1.715 2000.000 0.000 1.715 3000.000 0.000 0.352
23 383.33 1200.00 74 474 220 1.715 2000.000 0.000 1.715 3000.000 0.000 0.352
24 400.00 1200.00 67 494 207 1.715 2000.000 0.000 1.715 3000.000 0.000 0.352
25 416.67 1200.00 74 451 216 1.715 2000.000 0.000 1.715 3000.000 0.000 0.352
26 433.33 1200.00 70 463 179 1.715 2000.000 0.000 1.715 3000.000 0.000 0.352
27 450.00 1200.00 74 433 200 1.715 2000.000 0.000 1.715 3000.000 0.000 0.352
28 466.67 1200.00 78 455 169 1.715 2000.000 0.000 1.715 3000.000 0.000 0.352
29 483.33 1200.00 86 466 167 1.715 2000.000 0.000 1.715 3000.000 0.000 0.352
30 500.00 1200.00 105 493 155 1.715 2000.000 0.000 1.715 3000.000 0.000 0.352
31 516.67 1200.00 89 505 191 1.715 2000.000 0.000 1.715 3000.000 0.000 0.352
32 533.33 1200.00 78 459 204 1.715 2000.000 0.000 1.715 3000.000 0.000 0.352
33 550.00 1200.00 82 482 199 1.715 2000.000 0.000 1.715 3000.000 0.000 0.352
34 566.67 1200.00 73 495 195 1.715 2000.000 0.000 1.715 3000.000 0.000 0.352
35 583.33 1200.00 77 478 201 1.715 2000.000 0.000 1.715 3000.000 0.000 0.352
36 600.00 1200.00 65 439 210 1.715 2000.000 0.000 1.715 3000.000 0.000 0.352
37 616.67 1200.00 60 448 227 1.715 2000.000 0.000 1.715 3000.000 0.000 0.352
38 633.33 1200.00 75 441 176 1.715 2000.000 0.000 1.715 3000.000 0.000 0.352
39 650.00 1200.00 53 477 172 1.715 2000.000 0.000 1.715 3000.000 0.000 0.352
40 666.67 1200.00 84 508 198 1.715 2000.000 0.000 1.715 3000.000 0.000 0.352
41 683.33 1200.00 79 469 156 1.715 2000.000 0.000 1.715 3000.000 0.000 0.352
42 700.00 1200.00 63 512 169 1.715 2000.000 0.000 1.715 3000.000 0.000 0.352
43 716.67 1200.00 90 525 156 1.715 2000.000 0.000 1.715 3000.000 0.000 0.352
44 733.33 1200.00 83 546 174 1.715 2000.000 0.000 1.715 3000.000 0.000 0.352
45 750.00 1200.00 82 502 220 1.715 2000.000 0.000 1.715 3000.000 0.000 0.352
46 766.67 1200.00 94 500 191 1.715 2000.000 0.000 1.715 3000.000 0.000 0.352
47 783.33 1200.00 69 509 211 1.715 2000.000 0.000 1.715 3000.000 0.000 0.352
48 800.00 1200.00 85 463 215 1.715 2000.000 0.000 1.715 3000.000 0.000 0.352
49 816.67 1200.00 76 455 212 1.715 2000.000 0.000 1.715 3000.000 0.000 0.352
50 833.34 1200.00 92 476 181 1.715 2000.000 0.000 1.715 3000.000 0.000 0.352
51 850.00 1200.00 83 510 201 1.715 2000.000 0.000 1.715 3000.000 0.000 0.352
52 866.67 1200.00 99 538 175 1.715 2000.000 0.000 1.715 3000.000 0.000 0.352
53 883.34 1200.00 91 512 174 1.715 2000.000 0.000 1.715 3000.000 0.000 0.352
54 900.00 1200.00 81 561 172 1.715 2000.000 0.000 1.715 3000.000 0.000 0.352
55 916.67 1200.00 88 516 174 1.715 2000.000 0.000 1.715 3000.000 0.000 0.352
56 933.34 1200.00 85 520 201 1.715 2000.000 0.000 1.715 3000.000 0.000 0.352
57 950.00 1200.00 96 515 208 1.715 2000.000 0.000 1.715 3000.000 0.000 0.352
58 966.67 1200.00 87 484 201 1.715 2000.000 0.000 1.715 3000.000 0.000 0.352
59 983.34 1200.00 98 477 246 1.715 2000.000 0.000 1.715 3000.000 0.000 0.352
60 1000.00 1200.00 85 457 207 1.715 2000.000 0.000 1.715 3000.000 0.000 0.352
61 1016.67 1200.00 87 456 201 1.715 2000.000 0.000 1.715 3000.000 0.000 0.352
62 1033.34 1200.00 80 494 201 1.715 2000.000 0.000 1.715 3000.000 0.000 0.352
63 1050.00 1200.00 78 524 203 1.715 2000.000 0.000 1.715 3000.000 0.000 0.352
64 1066.67 1200.00 87 520 211 1.715 2000.000 0.000 1.715 3000.000 0.000 0.352
65 1083.34 1200.00 76 532 202 1.715 2000.000 0.000 1.715 3000.000 0.000 0.352
66 1100.00 1200.00 84 497 192 1.715 2000.000 0.000 1.715 3000.000 0.000 0.352
67 1116.67 1200.00 87 520 218 1.715 2000.000 0.000 1.715 3000.000 0.000 0.352
68 1133.34 1200.00 79 490 205 1.715 2000.000 0.000 1.715 3000.000 0.000 0.352
69 1150.00 1200.00 63 477 211 1.715 2000.000 0.000 1.715 3000.000 0.000 0.352
70 1166.67 1200.00 72 487 240 1.715 2000.000 0.000 1.715 3000.000 0.000 0.352
71 1183.34 1200.00 76 507 205 1.715 2000.000 0.000 1.715 3000.000 0.000 0.352
72 1200.00 1200.00 69 465 201 1.715 2000.000 0.000 1.715 3000.000 0.000 0.352
73 1216.67 1200.00 76 469 207 1.715 2000.000 0.000 1.715 3000.000 0.000 0.352
74 1233.34 1200.00 68 461 214 1.715 2000.000 0.000 1.715 3000.000 0.000 0.352
75 1250.00 1200.00 73 485 211 1.715 2000.000 0.000 1.715 3000.000 0.000 0.352
76 1266.67 1200.00 80 456 199 1.715 2000.000 0.000 1.715 3000.000 0.000 0.352
77 1283.34 1200.00 77 460 205 1.715 2000.000 0.000 1.715 3000.000 0.000 0.352
78 1300.00 1200.00 69 454 219 1.715 2000.000 0.000 1.715 3000.000 0.000 0.352
79 1316.67 1200.00 69 467 188 1.715 2000.000 0.000 1.715 3000.000 0.000 0.352
80 1333.34 1200.00 87 409 211 1.715 2000.000 0.000 1.715 3000.000 0.000 0.352
81 1350.00 1200.00 88 428 209 1.715 2000.000 0.000 1.715 3000.000 0.000 0.352
82 1366.67 1200.00 76 467 209 1.715 2000.000 0.000 1.715 3000.000 0.000 0.352
83 1383.34 1200.00 69 447 209 1.715 2000.000 0.000 1.715 3000.000 0.000 0.352
84 1400.00 1200.00 59 483 232 1.715 2000.000 0.000 1.715 3000.000 0.000 0.352
85 1416.67 1200.00 68 430 208 1.715 2000.000 0.000 1.715 3000.000 0.000 0.352
86 1433.34 1200.00 69 503 197 1.715 2000.000 0.000 1.715 3000.000 0.000 0.352
87 1450.00 1200.00 70 460 168 1.715 2000.000 0.000 1.715 3000.000 0.000 0.352
88 1466.67 1200.00 76 482 174 1.715 2000.000 0.000 1.715 3000.000 0.000 0.352
89 1483.34 1200.00 88 465 175 1.715 2000.000 0.000 1.715 3000.000 0.000 0.352
90 1500.00 1200.00 85 456 182 1.715 2000.000 0.000 1.715 3000.000 0.000 0.352
91 1516.67 1200.00 91 458 188 1.715 2000.000 0.000 1.715 3000.000 0.000 0.352
92 1533.34 1200.00 80 510 189 1.715 2000.000 0.000 1.715 3000.000 0.000 0.352
93 1550.00 1200.00 80 451 202 1.715 2000.000 0.000 1.715 3000.000 0.000 0.352
94 1566.67 1200.00 70 501 219 1.715 2000.000 0.000 1.715 3000.000 0.000 0.352
95 1583.34 1200.00 71 476 196 1.715 2000.000 0.000 1.715 3000.000 0.000 0.352
96 1600.00 1200.00 75 457 230 1.715 2000.000 0.000 1.715 3000.000 0.000 0.352
97 1616.67 1200.00 70 503 204 1.715 2000.000 0.000 1.715 3000.000 0.000 0.352
98 1633.34 1200.00 81 464 223 1.715 2000.000 0.000 1.715 3000.000 0.000 0.352
99 1650.00 1200.00 63 478 167 1.715 2000.000 0.000 1.715 3000.000 0.000 0.352
100 1666.67 1200.00 82 487 150 1.715 2000.000 0.000 1.715 3000.000 0.000 0.352
101 1683.34 1200.00 73 523 160 1.715 2000.000 0.000 1.715 3000.000 0.000 0.352
102 1700.00 1200.00 79 540 168 1.715 2000.000 0.000 1.715 3000.000 0.000 0.352
103 1716.67 1200.00 81 527 204 1.715 2000.000 0.000 1.715 3000.000 0.000 0.352
104 1733.34 1200.00 106 538 170 1.715 2000.000 0.000 1.715 3000.000 0.000 0.352
105 1750.00 1200.00 87 515 209 1.715 2000.000 0.000 1.715 3000.000 0.000 0.352
106 1766.67 1200.00 90 468 206 1.715 2000.000 0.000 1.715 3000.000 0.000 0.352
107 1783.34 1200.00 93 482 231 1.715 2000.000 0.000 1.715 3000.000 0.000 0.352
108 1800.00 1200.00 84 479 197 1.715 2000.000 0.000 1.715 3000.000 0.000 0.352
109 1816.67 1200.00 104 404 201 1.715 2000.000 0.000 1.715 3000.000 0.000 0.352
110 1833.34 1200.00 81 477 202 1.715 2000.000 0.000 1.715 3000.000 0.000 0.352
111 1850.00 1200.00 78 458 194 1.715 2000.000 0.000 1.715 3000.000 0.000 0.352
112 1866.67 1200.00 81 501 176 1.715 2000.000 0.000 1.715 3000.000 0.000 0.352
113 1883.34 1200.00 62 538 174 1.715 2000.000 0.000 1.715 3000.000 0.000 0.352
114 1900.00 1200.00 92 520 174 1.715 2000.000 0.000 1.715 3000.000 0.000 0.352
115 1916.67 1200.00 94 531 174 1.715 2000.000 0.000 1.715 3000.000 0.000 0.352
116 1933.34 1200.00 82 579 199 1.715 2000.000 0.000 1.715 3000.000 0.000 0.352
117 1950.00 1200.00 94 485 197 1.715 2000.000 0.000 1.715 3000.000 0.000 0.352
118 1966.67 1200.00 86 530 224 1.715 2000.000 0.000 1.715 3000.000 0.000 0.352
119 1983.34 1200.00 77 472 232 1.715 2000.000 0.000 1.715 3000.000 0.000 0.352
