# BinNR microsec tot-time (s)  O-Beam H-beam AUX Ampl1(V) f1(Hz) phase1(deg) Ampl1(V) f1(Hz) phase1(deg) chi(pos)
0 0.00 1200.00 51 655 89 1.715 2000.000 0.000 1.715 3000.000 0.000 1.505
1 16.67 1200.00 41 677 87 1.715 2000.000 0.000 1.715 3000.000 0.000 1.505
2 33.33 1200.00 47 646 83 1.715 2000.000 0.000 1.715 3000.000 0.000 1.505
3 50.00 1200.00 36 657 97 1.715 2000.000 0.000 1.715 3000.000 0.000 1.505
4 66.67 1200.00 39 655 73 1.715 2000.000 0.000 1.715 3000.000 0.000 1.505
5 83.33 1200.00 24 543 81 1.715 2000.000 0.000 1.715 3000.000 0.000 1.505
6 100.00 1200.00 21 642 82 1.715 2000.000 0.000 1.715 3000.000 0.000 1.505
7 116.67 1200.00 35 582 72 1.715 2000.000 0.000 1.715 3000.000 0.000 1.505
8 133.33 1200.00 43 558 79 1.715 2000.000 0.000 1.715 3000.000 0.000 1.505
9 150.00 1200.00 42 695 79 1.715 2000.000 0.000 1.715 3000.000 0.000 1.505
10 166.67 1200.00 73 631 81 1.715 2000.000 0.000 1.715 3000.000 0.000 1.505
11 183.33 1200.00 58 679 92 1.715 2000.000 0.000 1.715 3000.000 0.000 1.505
12 200.00 1200.00 55 725 70 1.715 2000.000 0.000 1.715 3000.000 0.000 1.505
13 216.67 1200.00 52 675 80 1.715 2000.000 0.000 1.715 3000.000 0.000 1.505
14 233.33 1200.00 61 703 75 1.715 2000.000 0.000 1.715 3000.000 0.000 1.505
15 250.00 1200.00 54 684 97 1.715 2000.000 0.000 1.715 3000.000 0.000 1.505
16 266.67 1200.00 48 648 90 1.715 2000.000 0.000 1.715 3000.000 0.000 1.505
17 283.33 1200.00 45 627 97 1.715 2000.000 0.000 1.715 3000.000 0.000 1.505
18 300.00 1200.00 40 670 109 1.715 2000.000 0.000 1.715 3000.000 0.000 1.505
19 316.67 1200.00 34 718 92 1.715 2000.000 0.000 1.715 3000.000 0.000 1.505
20 333.33 1200.00 34 696 96 1.715 2000.000 0.000 1.715 3000.000 0.000 1.505
21 350.00 1200.00 54 674 87 1.715 2000.000 0.000 1.715 3000.000 0.000 1.505
22 366.67 1200.00 59 696 89 1.715 2000.000 0.000 1.715 3000.000 0.000 1.505
23 383.33 1200.00 61 635 84 1.715 2000.000 0.000 1.715 3000.000 0.000 1.505
24 400.00 1200.00 81 694 77 1.715 2000.000 0.000 1.715 3000.000 0.000 1.505
25 416.67 1200.00 64 681 102 1.715 2000.000 0.000 1.715 3000.000 0.000 1.505
26 433.33 1200.00 57 664 102 1.715 2000.000 0.000 1.715 3000.000 0.000 1.505
27 450.00 1200.00 67 648 127 1.715 2000.000 0.000 1.715 3000.000 0.000 1.505
28 466.67 1200.00 42 708 133 1.715 2000.000 0.000 1.715 3000.000 0.000 1.505
29 483.33 1200.00 34 679 142 1.715 2000.000 0.000 1.715 3000.000 0.000 1.505
30 500.00 1200.00 31 664 138 1.715 2000.000 0.000 1.715 3000.000 0.000 1.505
31 516.67 1200.00 27 638 149 1.715 2000.000 0.000 1.715 3000.000 0.000 1.505
32 533.33 1200.00 29 660 115 1.715 2000.000 0.000 1.715 3000.000 0.000 1.505
33 550.00 1200.00 44 596 127 1.715 2000.000 0.000 1.715 3000.000 0.000 1.505
34 566.67 1200.00 51 655 85 1.715 2000.000 0.000 1.715 3000.000 0.000 1.505
35 583.33 1200.00 52 685 71 1.715 2000.000 0.000 1.715 3000.000 0.000 1.505
36 600.00 1200.00 65 703 87 1.715 2000.000 0.000 1.715 3000.000 0.000 1.505
37 616.67 1200.00 58 658 85 1.715 2000.000 0.000 1.715 3000.000 0.000 1.505
38 633.33 1200.00 54 698 120 1.715 2000.000 0.000 1.715 3000.000 0.000 1.505
39 650.00 1200.00 43 653 108 1.715 2000.000 0.000 1.715 3000.000 0.000 1.505
40 666.67 1200.00 48 607 153 1.715 2000.000 0.000 1.715 3000.000 0.000 1.505
41 683.33 1200.00 42 613 155 1.715 2000.000 0.000 1.715 3000.000 0.000 1.505
42 700.00 1200.00 44 562 149 1.715 2000.000 0.000 1.715 3000.000 0.000 1.505
43 716.67 1200.00 23 622 164 1.715 2000.000 0.000 1.715 3000.000 0.000 1.505
44 733.33 1200.00 36 639 116 1.715 2000.000 0.000 1.715 3000.000 0.000 1.505
45 750.00 1200.00 30 602 99 1.715 2000.000 0.000 1.715 3000.000 0.000 1.505
46 766.67 1200.00 41 654 96 1.715 2000.000 0.000 1.715 3000.000 0.000 1.505
47 783.33 1200.00 37 673 78 1.715 2000.000 0.000 1.715 3000.000 0.000 1.505
48 800.00 1200.00 40 719 95 1.715 2000.000 0.000 1.715 3000.000 0.000 1.505
49 816.67 1200.00 31 660 97 1.715 2000.000 0.000 1.715 3000.000 0.000 1.505
50 833.34 1200.00 43 659 85 1.715 2000.000 0.000 1.715 3000.000 0.000 1.505
51 850.00 1200.00 41 645 117 1.715 2000.000 0.000 1.715 3000.000 0.000 1.505
52 866.67 1200.00 39 609 128 1.715 2000.000 0.000 1.715 3000.000 0.000 1.505
53 883.34 1200.00 28 564 138 1.715 2000.000 0.000 1.715 3000.000 0.000 1.505
54 900.00 1200.00 27 611 118 1.715 2000.000 0.000 1.715 3000.000 0.000 1.505
55 916.67 1200.00 33 587 134 1.715 2000.000 0.000 1.715 3000.000 0.000 1.505
56 933.34 1200.00 37 610 103 1.715 2000.000 0.000 1.715 3000.000 0.000 1.505
57 950.00 1200.00 40 605 102 1.715 2000.000 0.000 1.715 3000.000 0.000 1.505
58 966.67 1200.00 35 620 94 1.715 2000.000 0.000 1.715 3000.000 0.000 1.505
59 983.34 1200.00 44 646 80 1.715 2000.000 0.000 1.715 3000.000 0.000 1.505
60 1000.00 1200.00 45 677 69 1.715 2000.000 0.000 1.715 3000.000 0.000 1.505
61 1016.67 1200.00 37 694 78 1.715 2000.000 0.000 1.715 3000.000 0.000 1.505
62 1033.34 1200.00 41 677 86 1.715 2000.000 0.000 1.715 3000.000 0.000 1.505
63 1050.00 1200.00 37 633 112 1.715 2000.000 0.000 1.715 3000.000 0.000 1.505
64 1066.67 1200.00 36 600 80 1.715 2000.000 0.000 1.715 3000.000 0.000 1.505
65 1083.34 1200.00 45 621 81 1.715 2000.000 0.000 1.715 3000.000 0.000 1.505
66 1100.00 1200.00 31 594 91 1.715 2000.000 0.000 1.715 3000.000 0.000 1.505
67 1116.67 1200.00 40 627 77 1.715 2000.000 0.000 1.715 3000.000 0.000 1.505
68 1133.34 1200.00 45 596 84 1.715 2000.000 0.000 1.715 3000.000 0.000 1.505
69 1150.00 1200.00 40 642 62 1.715 2000.000 0.000 1.715 3000.000 0.000 1.505
70 1166.67 1200.00 47 646 70 1.715 2000.000 0.000 1.715 3000.000 0.000 1.505
71 1183.34 1200.00 55 674 96 1.715 2000.000 0.000 1.715 3000.000 0.000 1.505
72 1200.00 1200.00 53 699 74 1.715 2000.000 0.000 1.715 3000.000 0.000 1.505
73 1216.67 1200.00 74 707 78 1.715 2000.000 0.000 1.715 3000.000 0.000 1.505
74 1233.34 1200.00 60 672 83 1.715 2000.000 0.000 1.715 3000.000 0.000 1.505
75 1250.00 1200.00 54 671 84 1.715 2000.000 0.000 1.715 3000.000 0.000 1.505
76 1266.67 1200.00 53 720 89 1.715 2000.000 0.000 1.715 3000.000 0.000 1.505
77 1283.34 1200.00 60 673 94 1.715 2000.000 0.000 1.715 3000.000 0.000 1.505
78 1300.00 1200.00 37 654 104 1.715 2000.000 0.000 1.715 3000.000 0.000 1.505
79 1316.67 1200.00 38 674 86 1.715 2000.000 0.000 1.715 3000.000 0.000 1.505
80 1333.34 1200.00 44 681 80 1.715 2000.000 0.000 1.715 3000.000 0.000 1.505
81 1350.00 1200.00 34 691 93 1.715 2000.000 0.000 1.715 3000.000 0.000 1.505
82 1366.67 1200.00 52 704 91 1.715 2000.000 0.000 1.715 3000.000 0.000 1.505
83 1383.34 1200.00 57 709 85 1.715 2000.000 0.000 1.715 3000.000 0.000 1.505
84 1400.00 1200.00 65 637 65 1.715 2000.000 0.000 1.715 3000.000 0.000 1.505
85 1416.67 1200.00 53 682 98 1.715 2000.000 0.000 1.715 3000.000 0.000 1.505
86 1433.34 1200.00 61 686 101 1.715 2000.000 0.000 1.715 3000.000 0.000 1.505
87 1450.00 1200.00 55 660 133 1.715 2000.000 0.000 1.715 3000.000 0.000 1.505
88 1466.67 1200.00 42 712 136 1.715 2000.000 0.000 1.715 3000.000 0.000 1.505
89 1483.34 1200.00 46 653 165 1.715 2000.000 0.000 1.715 3000.000 0.000 1.505
90 1500.00 1200.00 28 619 127 1.715 2000.000 0.000 1.715 3000.000 0.000 1.505
91 1516.67 1200.00 39 633 121 1.715 2000.000 0.000 1.715 3000.000 0.000 1.505
92 1533.34 1200.00 36 722 128 1.715 2000.000 0.000 1.715 3000.000 0.000 1.505
93 1550.00 1200.00 55 668 101 1.715 2000.000 0.000 1.715 3000.000 0.000 1.505
94 1566.67 1200.00 58 711 90 1.715 2000.000 0.000 1.715 3000.000 0.000 1.505
95 1583.34 1200.00 62 676 78 1.715 2000.000 0.000 1.715 3000.000 0.000 1.505
96 1600.00 1200.00 54 629 67 1.715 2000.000 0.000 1.715 3000.000 0.000 1.505
97 1616.67 1200.00 56 706 94 1.715 2000.000 0.000 1.715 3000.000 0.000 1.505
98 1633.34 1200.00 44 708 102 1.715 2000.000 0.000 1.715 3000.000 0.000 1.505
99 1650.00 1200.00 36 619 152 1.715 2000.000 0.000 1.715 3000.000 0.000 1.505
100 1666.67 1200.00 49 601 163 1.715 2000.000 0.000 1.715 3000.000 0.000 1.505
101 1683.34 1200.00 43 560 166 1.715 2000.000 0.000 1.715 3000.000 0.000 1.505
102 1700.00 1200.00 40 581 166 1.715 2000.000 0.000 1.715 3000.000 0.000 1.505
103 1716.67 1200.00 25 573 151 1.715 2000.000 0.000 1.715 3000.000 0.000 1.505
104 1733.34 1200.00 31 548 127 1.715 2000.000 0.000 1.715 3000.000 0.000 1.505
105 1750.00 1200.00 29 568 116 1.715 2000.000 0.000 1.715 3000.000 0.000 1.505
106 1766.67 1200.00 38 675 107 1.715 2000.000 0.000 1.715 3000.000 0.000 1.505
107 1783.34 1200.00 42 674 90 1.715 2000.000 0.000 1.715 3000.000 0.000 1.505
108 1800.00 1200.00 30 623 95 1.715 2000.000 0.000 1.715 3000.000 0.000 1.505
109 1816.67 1200.00 39 641 97 1.715 2000.000 0.000 1.715 3000.000 0.000 1.505
110 1833.34 1200.00 33 665 101 1.715 2000.000 0.000 1.715 3000.000 0.000 1.505
111 1850.00 1200.00 42 660 111 1.715 2000.000 0.000 1.715 3000.000 0.000 1.505
112 1866.67 1200.00 25 631 121 1.715 2000.000 0.000 1.715 3000.000 0.000 1.505
113 1883.34 1200.00 31 592 137 1.715 2000.000 0.000 1.715 3000.000 0.000 1.505
114 1900.00 1200.00 38 558 139 1.715 2000.000 0.000 1.715 3000.000 0.000 1.505
115 1916.67 1200.00 41 578 134 1.715 2000.000 0.000 1.715 3000.000 0.000 1.505
116 1933.34 1200.00 32 566 102 1.715 2000.000 0.000 1.715 3000.000 0.000 1.505
117 1950.00 1200.00 35 627 99 1.715 2000.000 0.000 1.715 3000.000 0.000 1.505
118 1966.67 1200.00 42 574 75 1.715 2000.000 0.000 1.715 3000.000 0.000 1.505
119 1983.34 1200.00 20 610 76 1.715 2000.000 0.000 1.715 3000.000 0.000 1.505
