# BinNR microsec tot-time (s)  O-Beam AUX Ampl_1(V) f_1(Hz) phase_1(deg) Ampl_2(V) f_2(Hz) phase_2(deg) chi(pos)
0 0.00 1500.01 67 107 0.740 10000.000 0.000 0.610 15000.000 0.000 0.989
1 3.00 1500.01 100 155 0.740 10000.000 0.000 0.610 15000.000 0.000 0.989
2 6.00 1500.01 112 157 0.740 10000.000 0.000 0.610 15000.000 0.000 0.989
3 9.00 1500.01 117 151 0.740 10000.000 0.000 0.610 15000.000 0.000 0.989
4 12.00 1500.01 115 191 0.740 10000.000 0.000 0.610 15000.000 0.000 0.989
5 15.00 1500.01 104 198 0.740 10000.000 0.000 0.610 15000.000 0.000 0.989
6 18.00 1500.01 116 213 0.740 10000.000 0.000 0.610 15000.000 0.000 0.989
7 21.00 1500.01 128 226 0.740 10000.000 0.000 0.610 15000.000 0.000 0.989
8 24.00 1500.01 118 267 0.740 10000.000 0.000 0.610 15000.000 0.000 0.989
9 27.00 1500.01 127 294 0.740 10000.000 0.000 0.610 15000.000 0.000 0.989
10 30.00 1500.01 122 298 0.740 10000.000 0.000 0.610 15000.000 0.000 0.989
11 33.00 1500.01 150 334 0.740 10000.000 0.000 0.610 15000.000 0.000 0.989
12 36.00 1500.01 131 309 0.740 10000.000 0.000 0.610 15000.000 0.000 0.989
13 39.00 1500.01 145 275 0.740 10000.000 0.000 0.610 15000.000 0.000 0.989
14 42.00 1500.01 142 250 0.740 10000.000 0.000 0.610 15000.000 0.000 0.989
15 45.00 1500.01 144 251 0.740 10000.000 0.000 0.610 15000.000 0.000 0.989
16 48.00 1500.01 158 230 0.740 10000.000 0.000 0.610 15000.000 0.000 0.989
17 51.00 1500.01 148 170 0.740 10000.000 0.000 0.610 15000.000 0.000 0.989
18 54.00 1500.01 143 198 0.740 10000.000 0.000 0.610 15000.000 0.000 0.989
19 57.00 1500.01 127 173 0.740 10000.000 0.000 0.610 15000.000 0.000 0.989
20 60.00 1500.01 142 193 0.740 10000.000 0.000 0.610 15000.000 0.000 0.989
21 63.00 1500.01 143 190 0.740 10000.000 0.000 0.610 15000.000 0.000 0.989
22 66.00 1500.01 94 242 0.740 10000.000 0.000 0.610 15000.000 0.000 0.989
23 69.00 1500.01 112 261 0.740 10000.000 0.000 0.610 15000.000 0.000 0.989
24 72.00 1500.01 128 315 0.740 10000.000 0.000 0.610 15000.000 0.000 0.989
25 75.00 1500.01 106 393 0.740 10000.000 0.000 0.610 15000.000 0.000 0.989
26 78.00 1500.01 96 433 0.740 10000.000 0.000 0.610 15000.000 0.000 0.989
27 81.00 1500.01 115 452 0.740 10000.000 0.000 0.610 15000.000 0.000 0.989
28 84.00 1500.01 113 466 0.740 10000.000 0.000 0.610 15000.000 0.000 0.989
29 87.00 1500.01 92 495 0.740 10000.000 0.000 0.610 15000.000 0.000 0.989
30 90.00 1500.01 120 521 0.740 10000.000 0.000 0.610 15000.000 0.000 0.989
31 93.00 1500.01 111 498 0.740 10000.000 0.000 0.610 15000.000 0.000 0.989
32 96.00 1500.01 110 489 0.740 10000.000 0.000 0.610 15000.000 0.000 0.989
33 99.00 1500.01 128 441 0.740 10000.000 0.000 0.610 15000.000 0.000 0.989
34 102.00 1500.01 120 385 0.740 10000.000 0.000 0.610 15000.000 0.000 0.989
35 105.00 1500.01 116 350 0.740 10000.000 0.000 0.610 15000.000 0.000 0.989
36 108.00 1500.01 131 359 0.740 10000.000 0.000 0.610 15000.000 0.000 0.989
37 111.00 1500.01 139 259 0.740 10000.000 0.000 0.610 15000.000 0.000 0.989
38 114.00 1500.01 140 265 0.740 10000.000 0.000 0.610 15000.000 0.000 0.989
39 117.00 1500.01 153 209 0.740 10000.000 0.000 0.610 15000.000 0.000 0.989
40 120.00 1500.01 143 214 0.740 10000.000 0.000 0.610 15000.000 0.000 0.989
41 123.00 1500.01 155 211 0.740 10000.000 0.000 0.610 15000.000 0.000 0.989
42 126.00 1500.01 163 231 0.740 10000.000 0.000 0.610 15000.000 0.000 0.989
43 129.00 1500.01 148 198 0.740 10000.000 0.000 0.610 15000.000 0.000 0.989
44 132.00 1500.01 138 234 0.740 10000.000 0.000 0.610 15000.000 0.000 0.989
45 135.00 1500.01 134 209 0.740 10000.000 0.000 0.610 15000.000 0.000 0.989
46 138.00 1500.01 122 252 0.740 10000.000 0.000 0.610 15000.000 0.000 0.989
47 141.00 1500.01 107 247 0.740 10000.000 0.000 0.610 15000.000 0.000 0.989
48 144.00 1500.01 120 320 0.740 10000.000 0.000 0.610 15000.000 0.000 0.989
49 147.00 1500.01 104 275 0.740 10000.000 0.000 0.610 15000.000 0.000 0.989
50 150.00 1500.01 121 296 0.740 10000.000 0.000 0.610 15000.000 0.000 0.989
51 153.00 1500.01 118 261 0.740 10000.000 0.000 0.610 15000.000 0.000 0.989
52 156.00 1500.01 119 256 0.740 10000.000 0.000 0.610 15000.000 0.000 0.989
53 159.00 1500.01 100 265 0.740 10000.000 0.000 0.610 15000.000 0.000 0.989
54 162.00 1500.01 107 235 0.740 10000.000 0.000 0.610 15000.000 0.000 0.989
55 165.00 1500.01 112 255 0.740 10000.000 0.000 0.610 15000.000 0.000 0.989
56 168.00 1500.01 101 231 0.740 10000.000 0.000 0.610 15000.000 0.000 0.989
57 171.00 1500.01 101 219 0.740 10000.000 0.000 0.610 15000.000 0.000 0.989
58 174.00 1500.01 111 221 0.740 10000.000 0.000 0.610 15000.000 0.000 0.989
59 177.00 1500.01 115 254 0.740 10000.000 0.000 0.610 15000.000 0.000 0.989
60 180.00 1500.01 130 254 0.740 10000.000 0.000 0.610 15000.000 0.000 0.989
61 183.00 1500.01 117 235 0.740 10000.000 0.000 0.610 15000.000 0.000 0.989
62 186.00 1500.01 118 294 0.740 10000.000 0.000 0.610 15000.000 0.000 0.989
63 189.00 1500.01 91 347 0.740 10000.000 0.000 0.610 15000.000 0.000 0.989
64 192.00 1500.01 111 354 0.740 10000.000 0.000 0.610 15000.000 0.000 0.989
65 195.00 1500.01 110 395 0.740 10000.000 0.000 0.610 15000.000 0.000 0.989
66 198.00 1500.01 108 447 0.740 10000.000 0.000 0.610 15000.000 0.000 0.989
67 201.00 1500.01 103 495 0.740 10000.000 0.000 0.610 15000.000 0.000 0.989
68 204.00 1500.01 110 551 0.740 10000.000 0.000 0.610 15000.000 0.000 0.989
69 207.00 1500.01 103 495 0.740 10000.000 0.000 0.610 15000.000 0.000 0.989
70 210.00 1500.01 106 520 0.740 10000.000 0.000 0.610 15000.000 0.000 0.989
71 213.00 1500.01 116 514 0.740 10000.000 0.000 0.610 15000.000 0.000 0.989
72 216.00 1500.01 128 500 0.740 10000.000 0.000 0.610 15000.000 0.000 0.989
73 219.00 1500.01 120 412 0.740 10000.000 0.000 0.610 15000.000 0.000 0.989
74 222.00 1500.01 122 390 0.740 10000.000 0.000 0.610 15000.000 0.000 0.989
75 225.00 1500.01 129 343 0.740 10000.000 0.000 0.610 15000.000 0.000 0.989
76 228.00 1500.01 131 285 0.740 10000.000 0.000 0.610 15000.000 0.000 0.989
77 231.00 1500.01 140 261 0.740 10000.000 0.000 0.610 15000.000 0.000 0.989
78 234.00 1500.01 130 211 0.740 10000.000 0.000 0.610 15000.000 0.000 0.989
79 237.00 1500.01 132 176 0.740 10000.000 0.000 0.610 15000.000 0.000 0.989
80 240.00 1500.01 144 171 0.740 10000.000 0.000 0.610 15000.000 0.000 0.989
81 243.00 1500.01 151 160 0.740 10000.000 0.000 0.610 15000.000 0.000 0.989
82 246.00 1500.01 158 157 0.740 10000.000 0.000 0.610 15000.000 0.000 0.989
83 249.00 1500.01 139 143 0.740 10000.000 0.000 0.610 15000.000 0.000 0.989
84 252.00 1500.01 146 140 0.740 10000.000 0.000 0.610 15000.000 0.000 0.989
85 255.00 1500.01 128 152 0.740 10000.000 0.000 0.610 15000.000 0.000 0.989
86 258.00 1500.01 139 191 0.740 10000.000 0.000 0.610 15000.000 0.000 0.989
87 261.00 1500.01 120 172 0.740 10000.000 0.000 0.610 15000.000 0.000 0.989
88 264.00 1500.01 102 217 0.740 10000.000 0.000 0.610 15000.000 0.000 0.989
89 267.00 1500.01 128 264 0.740 10000.000 0.000 0.610 15000.000 0.000 0.989
90 270.00 1500.01 106 331 0.740 10000.000 0.000 0.610 15000.000 0.000 0.989
91 273.00 1500.01 97 385 0.740 10000.000 0.000 0.610 15000.000 0.000 0.989
92 276.00 1500.01 99 420 0.740 10000.000 0.000 0.610 15000.000 0.000 0.989
93 279.00 1500.01 117 429 0.740 10000.000 0.000 0.610 15000.000 0.000 0.989
94 282.00 1500.01 96 458 0.740 10000.000 0.000 0.610 15000.000 0.000 0.989
95 285.00 1500.01 101 550 0.740 10000.000 0.000 0.610 15000.000 0.000 0.989
96 288.00 1500.01 106 519 0.740 10000.000 0.000 0.610 15000.000 0.000 0.989
97 291.00 1500.01 104 518 0.740 10000.000 0.000 0.610 15000.000 0.000 0.989
98 294.00 1500.01 113 493 0.740 10000.000 0.000 0.610 15000.000 0.000 0.989
99 297.00 1500.01 118 405 0.740 10000.000 0.000 0.610 15000.000 0.000 0.989
100 300.00 1500.01 131 442 0.740 10000.000 0.000 0.610 15000.000 0.000 0.989
101 303.00 1500.01 135 362 0.740 10000.000 0.000 0.610 15000.000 0.000 0.989
102 306.00 1500.01 128 330 0.740 10000.000 0.000 0.610 15000.000 0.000 0.989
103 309.00 1500.01 97 288 0.740 10000.000 0.000 0.610 15000.000 0.000 0.989
104 312.00 1500.01 101 293 0.740 10000.000 0.000 0.610 15000.000 0.000 0.989
105 315.00 1500.01 115 224 0.740 10000.000 0.000 0.610 15000.000 0.000 0.989
106 318.00 1500.01 115 258 0.740 10000.000 0.000 0.610 15000.000 0.000 0.989
107 321.00 1500.01 109 234 0.740 10000.000 0.000 0.610 15000.000 0.000 0.989
108 324.00 1500.01 107 228 0.740 10000.000 0.000 0.610 15000.000 0.000 0.989
109 327.00 1500.01 115 226 0.740 10000.000 0.000 0.610 15000.000 0.000 0.989
110 330.00 1500.01 90 229 0.740 10000.000 0.000 0.610 15000.000 0.000 0.989
111 333.00 1500.01 110 238 0.740 10000.000 0.000 0.610 15000.000 0.000 0.989
112 336.00 1500.01 123 281 0.740 10000.000 0.000 0.610 15000.000 0.000 0.989
113 339.00 1500.01 113 278 0.740 10000.000 0.000 0.610 15000.000 0.000 0.989
114 342.00 1500.01 146 265 0.740 10000.000 0.000 0.610 15000.000 0.000 0.989
115 345.00 1500.01 144 279 0.740 10000.000 0.000 0.610 15000.000 0.000 0.989
116 348.00 1500.01 135 269 0.740 10000.000 0.000 0.610 15000.000 0.000 0.989
117 351.00 1500.01 160 270 0.740 10000.000 0.000 0.610 15000.000 0.000 0.989
118 354.00 1500.01 149 279 0.740 10000.000 0.000 0.610 15000.000 0.000 0.989
119 357.00 1500.01 138 270 0.740 10000.000 0.000 0.610 15000.000 0.000 0.989
120 360.00 1500.01 152 232 0.740 10000.000 0.000 0.610 15000.000 0.000 0.989
121 363.00 1500.01 137 240 0.740 10000.000 0.000 0.610 15000.000 0.000 0.989
122 366.00 1500.01 149 218 0.740 10000.000 0.000 0.610 15000.000 0.000 0.989
123 369.00 1500.01 116 221 0.740 10000.000 0.000 0.610 15000.000 0.000 0.989
124 372.00 1500.01 130 216 0.740 10000.000 0.000 0.610 15000.000 0.000 0.989
125 375.00 1500.01 123 219 0.740 10000.000 0.000 0.610 15000.000 0.000 0.989
126 378.00 1500.01 130 265 0.740 10000.000 0.000 0.610 15000.000 0.000 0.989
127 381.00 1500.01 111 260 0.740 10000.000 0.000 0.610 15000.000 0.000 0.989
128 384.00 1500.01 114 267 0.740 10000.000 0.000 0.610 15000.000 0.000 0.989
129 387.00 1500.01 120 327 0.740 10000.000 0.000 0.610 15000.000 0.000 0.989
130 390.00 1500.01 135 312 0.740 10000.000 0.000 0.610 15000.000 0.000 0.989
131 393.00 1500.01 96 394 0.740 10000.000 0.000 0.610 15000.000 0.000 0.989
132 396.00 1500.01 121 392 0.740 10000.000 0.000 0.610 15000.000 0.000 0.989
133 399.00 1500.01 95 468 0.740 10000.000 0.000 0.610 15000.000 0.000 0.989
134 402.00 1500.01 121 448 0.740 10000.000 0.000 0.610 15000.000 0.000 0.989
135 405.00 1500.01 98 517 0.740 10000.000 0.000 0.610 15000.000 0.000 0.989
136 408.00 1500.01 108 500 0.740 10000.000 0.000 0.610 15000.000 0.000 0.989
137 411.00 1500.01 104 554 0.740 10000.000 0.000 0.610 15000.000 0.000 0.989
138 414.00 1500.01 121 506 0.740 10000.000 0.000 0.610 15000.000 0.000 0.989
139 417.00 1500.01 117 446 0.740 10000.000 0.000 0.610 15000.000 0.000 0.989
140 420.00 1500.01 109 408 0.740 10000.000 0.000 0.610 15000.000 0.000 0.989
141 423.00 1500.01 117 379 0.740 10000.000 0.000 0.610 15000.000 0.000 0.989
142 426.00 1500.01 118 356 0.740 10000.000 0.000 0.610 15000.000 0.000 0.989
143 429.00 1500.01 109 295 0.740 10000.000 0.000 0.610 15000.000 0.000 0.989
144 432.00 1500.01 100 228 0.740 10000.000 0.000 0.610 15000.000 0.000 0.989
