# BinNR microsec tot-time (s)  O-Beam AUX Ampl_1(V) f_1(Hz) phase_1(deg) Ampl_2(V) f_2(Hz) phase_2(deg) chi(pos)
0 0.00 1500.00 77 96 0.740 10000.000 0.000 0.610 15000.000 0.000 0.670
1 3.00 1500.00 142 248 0.740 10000.000 0.000 0.610 15000.000 0.000 0.670
2 6.00 1500.00 185 279 0.740 10000.000 0.000 0.610 15000.000 0.000 0.670
3 9.00 1500.00 144 241 0.740 10000.000 0.000 0.610 15000.000 0.000 0.670
4 12.00 1500.00 157 223 0.740 10000.000 0.000 0.610 15000.000 0.000 0.670
5 15.00 1500.00 142 232 0.740 10000.000 0.000 0.610 15000.000 0.000 0.670
6 18.00 1500.00 163 223 0.740 10000.000 0.000 0.610 15000.000 0.000 0.670
7 21.00 1500.00 152 217 0.740 10000.000 0.000 0.610 15000.000 0.000 0.670
8 24.00 1500.00 133 171 0.740 10000.000 0.000 0.610 15000.000 0.000 0.670
9 27.00 1500.00 140 166 0.740 10000.000 0.000 0.610 15000.000 0.000 0.670
10 30.00 1500.00 129 162 0.740 10000.000 0.000 0.610 15000.000 0.000 0.670
11 33.00 1500.00 124 160 0.740 10000.000 0.000 0.610 15000.000 0.000 0.670
12 36.00 1500.00 116 135 0.740 10000.000 0.000 0.610 15000.000 0.000 0.670
13 39.00 1500.00 119 160 0.740 10000.000 0.000 0.610 15000.000 0.000 0.670
14 42.00 1500.00 105 194 0.740 10000.000 0.000 0.610 15000.000 0.000 0.670
15 45.00 1500.00 131 194 0.740 10000.000 0.000 0.610 15000.000 0.000 0.670
16 48.00 1500.00 114 225 0.740 10000.000 0.000 0.610 15000.000 0.000 0.670
17 51.00 1500.00 102 226 0.740 10000.000 0.000 0.610 15000.000 0.000 0.670
18 54.00 1500.00 118 255 0.740 10000.000 0.000 0.610 15000.000 0.000 0.670
19 57.00 1500.00 125 207 0.740 10000.000 0.000 0.610 15000.000 0.000 0.670
20 60.00 1500.00 125 250 0.740 10000.000 0.000 0.610 15000.000 0.000 0.670
21 63.00 1500.00 129 217 0.740 10000.000 0.000 0.610 15000.000 0.000 0.670
22 66.00 1500.00 139 185 0.740 10000.000 0.000 0.610 15000.000 0.000 0.670
23 69.00 1500.00 169 160 0.740 10000.000 0.000 0.610 15000.000 0.000 0.670
24 72.00 1500.00 171 135 0.740 10000.000 0.000 0.610 15000.000 0.000 0.670
25 75.00 1500.00 172 122 0.740 10000.000 0.000 0.610 15000.000 0.000 0.670
26 78.00 1500.00 194 124 0.740 10000.000 0.000 0.610 15000.000 0.000 0.670
27 81.00 1500.00 220 163 0.740 10000.000 0.000 0.610 15000.000 0.000 0.670
28 84.00 1500.00 204 171 0.740 10000.000 0.000 0.610 15000.000 0.000 0.670
29 87.00 1500.00 213 159 0.740 10000.000 0.000 0.610 15000.000 0.000 0.670
30 90.00 1500.00 209 144 0.740 10000.000 0.000 0.610 15000.000 0.000 0.670
31 93.00 1500.00 190 164 0.740 10000.000 0.000 0.610 15000.000 0.000 0.670
32 96.00 1500.00 198 150 0.740 10000.000 0.000 0.610 15000.000 0.000 0.670
33 99.00 1500.00 176 127 0.740 10000.000 0.000 0.610 15000.000 0.000 0.670
34 102.00 1500.00 158 126 0.740 10000.000 0.000 0.610 15000.000 0.000 0.670
35 105.00 1500.00 140 145 0.740 10000.000 0.000 0.610 15000.000 0.000 0.670
36 108.00 1500.00 140 136 0.740 10000.000 0.000 0.610 15000.000 0.000 0.670
37 111.00 1500.00 150 183 0.740 10000.000 0.000 0.610 15000.000 0.000 0.670
38 114.00 1500.00 130 176 0.740 10000.000 0.000 0.610 15000.000 0.000 0.670
39 117.00 1500.00 127 150 0.740 10000.000 0.000 0.610 15000.000 0.000 0.670
40 120.00 1500.00 124 175 0.740 10000.000 0.000 0.610 15000.000 0.000 0.670
41 123.00 1500.00 116 194 0.740 10000.000 0.000 0.610 15000.000 0.000 0.670
42 126.00 1500.00 109 218 0.740 10000.000 0.000 0.610 15000.000 0.000 0.670
43 129.00 1500.00 118 179 0.740 10000.000 0.000 0.610 15000.000 0.000 0.670
44 132.00 1500.00 114 205 0.740 10000.000 0.000 0.610 15000.000 0.000 0.670
45 135.00 1500.00 116 211 0.740 10000.000 0.000 0.610 15000.000 0.000 0.670
46 138.00 1500.00 130 185 0.740 10000.000 0.000 0.610 15000.000 0.000 0.670
47 141.00 1500.00 125 166 0.740 10000.000 0.000 0.610 15000.000 0.000 0.670
48 144.00 1500.00 138 162 0.740 10000.000 0.000 0.610 15000.000 0.000 0.670
49 147.00 1500.00 123 156 0.740 10000.000 0.000 0.610 15000.000 0.000 0.670
50 150.00 1500.00 148 173 0.740 10000.000 0.000 0.610 15000.000 0.000 0.670
51 153.00 1500.00 151 186 0.740 10000.000 0.000 0.610 15000.000 0.000 0.670
52 156.00 1500.00 154 187 0.740 10000.000 0.000 0.610 15000.000 0.000 0.670
53 159.00 1500.00 157 177 0.740 10000.000 0.000 0.610 15000.000 0.000 0.670
54 162.00 1500.00 149 206 0.740 10000.000 0.000 0.610 15000.000 0.000 0.670
55 165.00 1500.00 173 181 0.740 10000.000 0.000 0.610 15000.000 0.000 0.670
56 168.00 1500.00 166 208 0.740 10000.000 0.000 0.610 15000.000 0.000 0.670
57 171.00 1500.00 149 206 0.740 10000.000 0.000 0.610 15000.000 0.000 0.670
58 174.00 1500.00 163 182 0.740 10000.000 0.000 0.610 15000.000 0.000 0.670
59 177.00 1500.00 175 189 0.740 10000.000 0.000 0.610 15000.000 0.000 0.670
60 180.00 1500.00 157 177 0.740 10000.000 0.000 0.610 15000.000 0.000 0.670
61 183.00 1500.00 165 145 0.740 10000.000 0.000 0.610 15000.000 0.000 0.670
62 186.00 1500.00 156 193 0.740 10000.000 0.000 0.610 15000.000 0.000 0.670
63 189.00 1500.00 134 150 0.740 10000.000 0.000 0.610 15000.000 0.000 0.670
64 192.00 1500.00 162 136 0.740 10000.000 0.000 0.610 15000.000 0.000 0.670
65 195.00 1500.00 147 135 0.740 10000.000 0.000 0.610 15000.000 0.000 0.670
66 198.00 1500.00 175 108 0.740 10000.000 0.000 0.610 15000.000 0.000 0.670
67 201.00 1500.00 163 135 0.740 10000.000 0.000 0.610 15000.000 0.000 0.670
68 204.00 1500.00 169 148 0.740 10000.000 0.000 0.610 15000.000 0.000 0.670
69 207.00 1500.00 165 152 0.740 10000.000 0.000 0.610 15000.000 0.000 0.670
70 210.00 1500.00 164 139 0.740 10000.000 0.000 0.610 15000.000 0.000 0.670
71 213.00 1500.00 133 160 0.740 10000.000 0.000 0.610 15000.000 0.000 0.670
72 216.00 1500.00 157 125 0.740 10000.000 0.000 0.610 15000.000 0.000 0.670
73 219.00 1500.00 155 159 0.740 10000.000 0.000 0.610 15000.000 0.000 0.670
74 222.00 1500.00 157 126 0.740 10000.000 0.000 0.610 15000.000 0.000 0.670
75 225.00 1500.00 138 143 0.740 10000.000 0.000 0.610 15000.000 0.000 0.670
76 228.00 1500.00 118 160 0.740 10000.000 0.000 0.610 15000.000 0.000 0.670
77 231.00 1500.00 132 180 0.740 10000.000 0.000 0.610 15000.000 0.000 0.670
78 234.00 1500.00 130 227 0.740 10000.000 0.000 0.610 15000.000 0.000 0.670
79 237.00 1500.00 124 262 0.740 10000.000 0.000 0.610 15000.000 0.000 0.670
80 240.00 1500.00 113 292 0.740 10000.000 0.000 0.610 15000.000 0.000 0.670
81 243.00 1500.00 106 309 0.740 10000.000 0.000 0.610 15000.000 0.000 0.670
82 246.00 1500.00 117 330 0.740 10000.000 0.000 0.610 15000.000 0.000 0.670
83 249.00 1500.00 122 376 0.740 10000.000 0.000 0.610 15000.000 0.000 0.670
84 252.00 1500.00 132 323 0.740 10000.000 0.000 0.610 15000.000 0.000 0.670
85 255.00 1500.00 116 287 0.740 10000.000 0.000 0.610 15000.000 0.000 0.670
86 258.00 1500.00 124 267 0.740 10000.000 0.000 0.610 15000.000 0.000 0.670
87 261.00 1500.00 131 226 0.740 10000.000 0.000 0.610 15000.000 0.000 0.670
88 264.00 1500.00 158 211 0.740 10000.000 0.000 0.610 15000.000 0.000 0.670
89 267.00 1500.00 184 142 0.740 10000.000 0.000 0.610 15000.000 0.000 0.670
90 270.00 1500.00 185 139 0.740 10000.000 0.000 0.610 15000.000 0.000 0.670
91 273.00 1500.00 167 128 0.740 10000.000 0.000 0.610 15000.000 0.000 0.670
92 276.00 1500.00 178 141 0.740 10000.000 0.000 0.610 15000.000 0.000 0.670
93 279.00 1500.00 144 157 0.740 10000.000 0.000 0.610 15000.000 0.000 0.670
94 282.00 1500.00 199 163 0.740 10000.000 0.000 0.610 15000.000 0.000 0.670
95 285.00 1500.00 185 150 0.740 10000.000 0.000 0.610 15000.000 0.000 0.670
96 288.00 1500.00 199 147 0.740 10000.000 0.000 0.610 15000.000 0.000 0.670
97 291.00 1500.00 157 166 0.740 10000.000 0.000 0.610 15000.000 0.000 0.670
98 294.00 1500.00 175 128 0.740 10000.000 0.000 0.610 15000.000 0.000 0.670
99 297.00 1500.00 151 142 0.740 10000.000 0.000 0.610 15000.000 0.000 0.670
100 300.00 1500.00 160 118 0.740 10000.000 0.000 0.610 15000.000 0.000 0.670
101 303.00 1500.00 138 124 0.740 10000.000 0.000 0.610 15000.000 0.000 0.670
102 306.00 1500.00 157 172 0.740 10000.000 0.000 0.610 15000.000 0.000 0.670
103 309.00 1500.00 161 166 0.740 10000.000 0.000 0.610 15000.000 0.000 0.670
104 312.00 1500.00 154 159 0.740 10000.000 0.000 0.610 15000.000 0.000 0.670
105 315.00 1500.00 179 179 0.740 10000.000 0.000 0.610 15000.000 0.000 0.670
106 318.00 1500.00 162 203 0.740 10000.000 0.000 0.610 15000.000 0.000 0.670
107 321.00 1500.00 173 188 0.740 10000.000 0.000 0.610 15000.000 0.000 0.670
108 324.00 1500.00 163 162 0.740 10000.000 0.000 0.610 15000.000 0.000 0.670
109 327.00 1500.00 171 211 0.740 10000.000 0.000 0.610 15000.000 0.000 0.670
110 330.00 1500.00 185 213 0.740 10000.000 0.000 0.610 15000.000 0.000 0.670
111 333.00 1500.00 161 208 0.740 10000.000 0.000 0.610 15000.000 0.000 0.670
112 336.00 1500.00 171 180 0.740 10000.000 0.000 0.610 15000.000 0.000 0.670
113 339.00 1500.00 159 175 0.740 10000.000 0.000 0.610 15000.000 0.000 0.670
114 342.00 1500.00 159 151 0.740 10000.000 0.000 0.610 15000.000 0.000 0.670
115 345.00 1500.00 132 172 0.740 10000.000 0.000 0.610 15000.000 0.000 0.670
116 348.00 1500.00 118 181 0.740 10000.000 0.000 0.610 15000.000 0.000 0.670
117 351.00 1500.00 135 174 0.740 10000.000 0.000 0.610 15000.000 0.000 0.670
118 354.00 1500.00 150 167 0.740 10000.000 0.000 0.610 15000.000 0.000 0.670
119 357.00 1500.00 123 189 0.740 10000.000 0.000 0.610 15000.000 0.000 0.670
120 360.00 1500.00 101 178 0.740 10000.000 0.000 0.610 15000.000 0.000 0.670
121 363.00 1500.00 100 180 0.740 10000.000 0.000 0.610 15000.000 0.000 0.670
122 366.00 1500.00 125 200 0.740 10000.000 0.000 0.610 15000.000 0.000 0.670
123 369.00 1500.00 129 196 0.740 10000.000 0.000 0.610 15000.000 0.000 0.670
124 372.00 1500.00 135 176 0.740 10000.000 0.000 0.610 15000.000 0.000 0.670
125 375.00 1500.00 135 188 0.740 10000.000 0.000 0.610 15000.000 0.000 0.670
126 378.00 1500.00 129 169 0.740 10000.000 0.000 0.610 15000.000 0.000 0.670
127 381.00 1500.00 154 164 0.740 10000.000 0.000 0.610 15000.000 0.000 0.670
128 384.00 1500.00 134 168 0.740 10000.000 0.000 0.610 15000.000 0.000 0.670
129 387.00 1500.00 128 149 0.740 10000.000 0.000 0.610 15000.000 0.000 0.670
130 390.00 1500.00 157 149 0.740 10000.000 0.000 0.610 15000.000 0.000 0.670
131 393.00 1500.00 200 134 0.740 10000.000 0.000 0.610 15000.000 0.000 0.670
132 396.00 1500.00 152 134 0.740 10000.000 0.000 0.610 15000.000 0.000 0.670
133 399.00 1500.00 178 157 0.740 10000.000 0.000 0.610 15000.000 0.000 0.670
134 402.00 1500.00 186 140 0.740 10000.000 0.000 0.610 15000.000 0.000 0.670
135 405.00 1500.00 169 139 0.740 10000.000 0.000 0.610 15000.000 0.000 0.670
136 408.00 1500.00 161 156 0.740 10000.000 0.000 0.610 15000.000 0.000 0.670
137 411.00 1500.00 164 174 0.740 10000.000 0.000 0.610 15000.000 0.000 0.670
138 414.00 1500.00 136 171 0.740 10000.000 0.000 0.610 15000.000 0.000 0.670
139 417.00 1500.00 157 143 0.740 10000.000 0.000 0.610 15000.000 0.000 0.670
140 420.00 1500.00 165 141 0.740 10000.000 0.000 0.610 15000.000 0.000 0.670
141 423.00 1500.00 148 134 0.740 10000.000 0.000 0.610 15000.000 0.000 0.670
142 426.00 1500.00 177 158 0.740 10000.000 0.000 0.610 15000.000 0.000 0.670
143 429.00 1500.00 178 178 0.740 10000.000 0.000 0.610 15000.000 0.000 0.670
144 432.00 1500.00 145 199 0.740 10000.000 0.000 0.610 15000.000 0.000 0.670
