# BinNR microsec tot-time (s)  O-Beam AUX Ampl_1(V) f_1(Hz) phase_1(deg) Ampl_2(V) f_2(Hz) phase_2(deg) chi(pos)
0 0.00 1500.01 180 340 0.740 10000.000 0.000 0.610 15000.000 0.000 0.319
1 3.00 1500.01 297 691 0.740 10000.000 0.000 0.610 15000.000 0.000 0.319
2 6.00 1500.01 303 813 0.740 10000.000 0.000 0.610 15000.000 0.000 0.319
3 9.00 1500.01 312 803 0.740 10000.000 0.000 0.610 15000.000 0.000 0.319
4 12.00 1500.01 335 783 0.740 10000.000 0.000 0.610 15000.000 0.000 0.319
5 15.00 1500.01 292 721 0.740 10000.000 0.000 0.610 15000.000 0.000 0.319
6 18.00 1500.01 254 679 0.740 10000.000 0.000 0.610 15000.000 0.000 0.319
7 21.00 1500.01 309 623 0.740 10000.000 0.000 0.610 15000.000 0.000 0.319
8 24.00 1500.01 314 543 0.740 10000.000 0.000 0.610 15000.000 0.000 0.319
9 27.00 1500.01 257 534 0.740 10000.000 0.000 0.610 15000.000 0.000 0.319
10 30.00 1500.01 246 601 0.740 10000.000 0.000 0.610 15000.000 0.000 0.319
11 33.00 1500.01 238 487 0.740 10000.000 0.000 0.610 15000.000 0.000 0.319
12 36.00 1500.01 246 547 0.740 10000.000 0.000 0.610 15000.000 0.000 0.319
13 39.00 1500.01 248 509 0.740 10000.000 0.000 0.610 15000.000 0.000 0.319
14 42.00 1500.01 212 605 0.740 10000.000 0.000 0.610 15000.000 0.000 0.319
15 45.00 1500.01 215 648 0.740 10000.000 0.000 0.610 15000.000 0.000 0.319
16 48.00 1500.01 227 674 0.740 10000.000 0.000 0.610 15000.000 0.000 0.319
17 51.00 1500.01 230 733 0.740 10000.000 0.000 0.610 15000.000 0.000 0.319
18 54.00 1500.01 231 742 0.740 10000.000 0.000 0.610 15000.000 0.000 0.319
19 57.00 1500.01 242 700 0.740 10000.000 0.000 0.610 15000.000 0.000 0.319
20 60.00 1500.01 284 715 0.740 10000.000 0.000 0.610 15000.000 0.000 0.319
21 63.00 1500.01 253 675 0.740 10000.000 0.000 0.610 15000.000 0.000 0.319
22 66.00 1500.01 326 619 0.740 10000.000 0.000 0.610 15000.000 0.000 0.319
23 69.00 1500.01 328 551 0.740 10000.000 0.000 0.610 15000.000 0.000 0.319
24 72.00 1500.01 350 483 0.740 10000.000 0.000 0.610 15000.000 0.000 0.319
25 75.00 1500.01 346 444 0.740 10000.000 0.000 0.610 15000.000 0.000 0.319
26 78.00 1500.01 339 358 0.740 10000.000 0.000 0.610 15000.000 0.000 0.319
27 81.00 1500.01 325 345 0.740 10000.000 0.000 0.610 15000.000 0.000 0.319
28 84.00 1500.01 400 301 0.740 10000.000 0.000 0.610 15000.000 0.000 0.319
29 87.00 1500.01 341 314 0.740 10000.000 0.000 0.610 15000.000 0.000 0.319
30 90.00 1500.01 376 323 0.740 10000.000 0.000 0.610 15000.000 0.000 0.319
31 93.00 1500.01 359 322 0.740 10000.000 0.000 0.610 15000.000 0.000 0.319
32 96.00 1500.01 367 341 0.740 10000.000 0.000 0.610 15000.000 0.000 0.319
33 99.00 1500.01 320 369 0.740 10000.000 0.000 0.610 15000.000 0.000 0.319
34 102.00 1500.01 291 433 0.740 10000.000 0.000 0.610 15000.000 0.000 0.319
35 105.00 1500.01 304 474 0.740 10000.000 0.000 0.610 15000.000 0.000 0.319
36 108.00 1500.01 265 474 0.740 10000.000 0.000 0.610 15000.000 0.000 0.319
37 111.00 1500.01 259 563 0.740 10000.000 0.000 0.610 15000.000 0.000 0.319
38 114.00 1500.01 264 553 0.740 10000.000 0.000 0.610 15000.000 0.000 0.319
39 117.00 1500.01 219 627 0.740 10000.000 0.000 0.610 15000.000 0.000 0.319
40 120.00 1500.01 213 611 0.740 10000.000 0.000 0.610 15000.000 0.000 0.319
41 123.00 1500.01 230 652 0.740 10000.000 0.000 0.610 15000.000 0.000 0.319
42 126.00 1500.01 234 675 0.740 10000.000 0.000 0.610 15000.000 0.000 0.319
43 129.00 1500.01 254 660 0.740 10000.000 0.000 0.610 15000.000 0.000 0.319
44 132.00 1500.01 215 612 0.740 10000.000 0.000 0.610 15000.000 0.000 0.319
45 135.00 1500.01 270 626 0.740 10000.000 0.000 0.610 15000.000 0.000 0.319
46 138.00 1500.01 248 637 0.740 10000.000 0.000 0.610 15000.000 0.000 0.319
47 141.00 1500.01 254 569 0.740 10000.000 0.000 0.610 15000.000 0.000 0.319
48 144.00 1500.01 277 566 0.740 10000.000 0.000 0.610 15000.000 0.000 0.319
49 147.00 1500.01 312 559 0.740 10000.000 0.000 0.610 15000.000 0.000 0.319
50 150.00 1500.01 326 588 0.740 10000.000 0.000 0.610 15000.000 0.000 0.319
51 153.00 1500.01 298 536 0.740 10000.000 0.000 0.610 15000.000 0.000 0.319
52 156.00 1500.01 314 599 0.740 10000.000 0.000 0.610 15000.000 0.000 0.319
53 159.00 1500.01 321 604 0.740 10000.000 0.000 0.610 15000.000 0.000 0.319
54 162.00 1500.01 331 728 0.740 10000.000 0.000 0.610 15000.000 0.000 0.319
55 165.00 1500.01 326 622 0.740 10000.000 0.000 0.610 15000.000 0.000 0.319
56 168.00 1500.01 324 650 0.740 10000.000 0.000 0.610 15000.000 0.000 0.319
57 171.00 1500.01 285 631 0.740 10000.000 0.000 0.610 15000.000 0.000 0.319
58 174.00 1500.01 302 624 0.740 10000.000 0.000 0.610 15000.000 0.000 0.319
59 177.00 1500.01 323 650 0.740 10000.000 0.000 0.610 15000.000 0.000 0.319
60 180.00 1500.01 275 613 0.740 10000.000 0.000 0.610 15000.000 0.000 0.319
61 183.00 1500.01 295 570 0.740 10000.000 0.000 0.610 15000.000 0.000 0.319
62 186.00 1500.01 324 531 0.740 10000.000 0.000 0.610 15000.000 0.000 0.319
63 189.00 1500.01 306 559 0.740 10000.000 0.000 0.610 15000.000 0.000 0.319
64 192.00 1500.01 322 455 0.740 10000.000 0.000 0.610 15000.000 0.000 0.319
65 195.00 1500.01 320 451 0.740 10000.000 0.000 0.610 15000.000 0.000 0.319
66 198.00 1500.01 332 372 0.740 10000.000 0.000 0.610 15000.000 0.000 0.319
67 201.00 1500.01 293 326 0.740 10000.000 0.000 0.610 15000.000 0.000 0.319
68 204.00 1500.01 329 334 0.740 10000.000 0.000 0.610 15000.000 0.000 0.319
69 207.00 1500.01 345 321 0.740 10000.000 0.000 0.610 15000.000 0.000 0.319
70 210.00 1500.01 332 278 0.740 10000.000 0.000 0.610 15000.000 0.000 0.319
71 213.00 1500.01 306 338 0.740 10000.000 0.000 0.610 15000.000 0.000 0.319
72 216.00 1500.01 333 349 0.740 10000.000 0.000 0.610 15000.000 0.000 0.319
73 219.00 1500.01 317 363 0.740 10000.000 0.000 0.610 15000.000 0.000 0.319
74 222.00 1500.01 311 425 0.740 10000.000 0.000 0.610 15000.000 0.000 0.319
75 225.00 1500.01 284 451 0.740 10000.000 0.000 0.610 15000.000 0.000 0.319
76 228.00 1500.01 276 549 0.740 10000.000 0.000 0.610 15000.000 0.000 0.319
77 231.00 1500.01 229 605 0.740 10000.000 0.000 0.610 15000.000 0.000 0.319
78 234.00 1500.01 237 720 0.740 10000.000 0.000 0.610 15000.000 0.000 0.319
79 237.00 1500.01 236 748 0.740 10000.000 0.000 0.610 15000.000 0.000 0.319
80 240.00 1500.01 237 806 0.740 10000.000 0.000 0.610 15000.000 0.000 0.319
81 243.00 1500.01 229 857 0.740 10000.000 0.000 0.610 15000.000 0.000 0.319
82 246.00 1500.01 221 896 0.740 10000.000 0.000 0.610 15000.000 0.000 0.319
83 249.00 1500.01 244 845 0.740 10000.000 0.000 0.610 15000.000 0.000 0.319
84 252.00 1500.01 248 895 0.740 10000.000 0.000 0.610 15000.000 0.000 0.319
85 255.00 1500.01 244 869 0.740 10000.000 0.000 0.610 15000.000 0.000 0.319
86 258.00 1500.01 266 761 0.740 10000.000 0.000 0.610 15000.000 0.000 0.319
87 261.00 1500.01 259 696 0.740 10000.000 0.000 0.610 15000.000 0.000 0.319
88 264.00 1500.01 289 681 0.740 10000.000 0.000 0.610 15000.000 0.000 0.319
89 267.00 1500.01 273 539 0.740 10000.000 0.000 0.610 15000.000 0.000 0.319
90 270.00 1500.01 327 511 0.740 10000.000 0.000 0.610 15000.000 0.000 0.319
91 273.00 1500.01 320 456 0.740 10000.000 0.000 0.610 15000.000 0.000 0.319
92 276.00 1500.01 381 378 0.740 10000.000 0.000 0.610 15000.000 0.000 0.319
93 279.00 1500.01 355 339 0.740 10000.000 0.000 0.610 15000.000 0.000 0.319
94 282.00 1500.01 332 330 0.740 10000.000 0.000 0.610 15000.000 0.000 0.319
95 285.00 1500.01 333 263 0.740 10000.000 0.000 0.610 15000.000 0.000 0.319
96 288.00 1500.01 321 346 0.740 10000.000 0.000 0.610 15000.000 0.000 0.319
97 291.00 1500.01 318 285 0.740 10000.000 0.000 0.610 15000.000 0.000 0.319
98 294.00 1500.01 313 358 0.740 10000.000 0.000 0.610 15000.000 0.000 0.319
99 297.00 1500.01 276 368 0.740 10000.000 0.000 0.610 15000.000 0.000 0.319
100 300.00 1500.01 299 365 0.740 10000.000 0.000 0.610 15000.000 0.000 0.319
101 303.00 1500.01 297 468 0.740 10000.000 0.000 0.610 15000.000 0.000 0.319
102 306.00 1500.01 303 466 0.740 10000.000 0.000 0.610 15000.000 0.000 0.319
103 309.00 1500.01 329 535 0.740 10000.000 0.000 0.610 15000.000 0.000 0.319
104 312.00 1500.01 339 563 0.740 10000.000 0.000 0.610 15000.000 0.000 0.319
105 315.00 1500.01 321 561 0.740 10000.000 0.000 0.610 15000.000 0.000 0.319
106 318.00 1500.01 333 627 0.740 10000.000 0.000 0.610 15000.000 0.000 0.319
107 321.00 1500.01 318 640 0.740 10000.000 0.000 0.610 15000.000 0.000 0.319
108 324.00 1500.01 326 635 0.740 10000.000 0.000 0.610 15000.000 0.000 0.319
109 327.00 1500.01 298 644 0.740 10000.000 0.000 0.610 15000.000 0.000 0.319
110 330.00 1500.01 320 648 0.740 10000.000 0.000 0.610 15000.000 0.000 0.319
111 333.00 1500.01 349 638 0.740 10000.000 0.000 0.610 15000.000 0.000 0.319
112 336.00 1500.01 307 625 0.740 10000.000 0.000 0.610 15000.000 0.000 0.319
113 339.00 1500.01 267 626 0.740 10000.000 0.000 0.610 15000.000 0.000 0.319
114 342.00 1500.01 304 535 0.740 10000.000 0.000 0.610 15000.000 0.000 0.319
115 345.00 1500.01 281 578 0.740 10000.000 0.000 0.610 15000.000 0.000 0.319
116 348.00 1500.01 256 570 0.740 10000.000 0.000 0.610 15000.000 0.000 0.319
117 351.00 1500.01 239 585 0.740 10000.000 0.000 0.610 15000.000 0.000 0.319
118 354.00 1500.01 244 584 0.740 10000.000 0.000 0.610 15000.000 0.000 0.319
119 357.00 1500.01 257 588 0.740 10000.000 0.000 0.610 15000.000 0.000 0.319
120 360.00 1500.01 232 599 0.740 10000.000 0.000 0.610 15000.000 0.000 0.319
121 363.00 1500.01 230 642 0.740 10000.000 0.000 0.610 15000.000 0.000 0.319
122 366.00 1500.01 243 622 0.740 10000.000 0.000 0.610 15000.000 0.000 0.319
123 369.00 1500.01 242 622 0.740 10000.000 0.000 0.610 15000.000 0.000 0.319
124 372.00 1500.01 253 659 0.740 10000.000 0.000 0.610 15000.000 0.000 0.319
125 375.00 1500.01 261 627 0.740 10000.000 0.000 0.610 15000.000 0.000 0.319
126 378.00 1500.01 297 642 0.740 10000.000 0.000 0.610 15000.000 0.000 0.319
127 381.00 1500.01 277 591 0.740 10000.000 0.000 0.610 15000.000 0.000 0.319
128 384.00 1500.01 292 568 0.740 10000.000 0.000 0.610 15000.000 0.000 0.319
129 387.00 1500.01 298 567 0.740 10000.000 0.000 0.610 15000.000 0.000 0.319
130 390.00 1500.01 315 501 0.740 10000.000 0.000 0.610 15000.000 0.000 0.319
131 393.00 1500.01 294 439 0.740 10000.000 0.000 0.610 15000.000 0.000 0.319
132 396.00 1500.01 315 413 0.740 10000.000 0.000 0.610 15000.000 0.000 0.319
133 399.00 1500.01 352 396 0.740 10000.000 0.000 0.610 15000.000 0.000 0.319
134 402.00 1500.01 334 357 0.740 10000.000 0.000 0.610 15000.000 0.000 0.319
135 405.00 1500.01 306 315 0.740 10000.000 0.000 0.610 15000.000 0.000 0.319
136 408.00 1500.01 305 301 0.740 10000.000 0.000 0.610 15000.000 0.000 0.319
137 411.00 1500.01 316 311 0.740 10000.000 0.000 0.610 15000.000 0.000 0.319
138 414.00 1500.01 311 313 0.740 10000.000 0.000 0.610 15000.000 0.000 0.319
139 417.00 1500.01 349 326 0.740 10000.000 0.000 0.610 15000.000 0.000 0.319
140 420.00 1500.01 322 413 0.740 10000.000 0.000 0.610 15000.000 0.000 0.319
141 423.00 1500.01 332 424 0.740 10000.000 0.000 0.610 15000.000 0.000 0.319
142 426.00 1500.01 314 498 0.740 10000.000 0.000 0.610 15000.000 0.000 0.319
143 429.00 1500.01 327 514 0.740 10000.000 0.000 0.610 15000.000 0.000 0.319
144 432.00 1500.01 297 681 0.740 10000.000 0.000 0.610 15000.000 0.000 0.319
