# BinNR microsec tot-time (s)  O-Beam AUX Ampl_1(V) f_1(Hz) phase_1(deg) Ampl_2(V) f_2(Hz) phase_2(deg) chi(pos)
0 0.00 1500.02 47 72 0.740 10000.000 0.000 0.610 15000.000 0.000 -1.154
1 3.00 1500.02 103 153 0.740 10000.000 0.000 0.610 15000.000 0.000 -1.154
2 6.00 1500.02 120 148 0.740 10000.000 0.000 0.610 15000.000 0.000 -1.154
3 9.00 1500.02 106 114 0.740 10000.000 0.000 0.610 15000.000 0.000 -1.154
4 12.00 1500.02 88 137 0.740 10000.000 0.000 0.610 15000.000 0.000 -1.154
5 15.00 1500.02 129 153 0.740 10000.000 0.000 0.610 15000.000 0.000 -1.154
6 18.00 1500.02 118 133 0.740 10000.000 0.000 0.610 15000.000 0.000 -1.154
7 21.00 1500.02 116 163 0.740 10000.000 0.000 0.610 15000.000 0.000 -1.154
8 24.00 1500.02 106 199 0.740 10000.000 0.000 0.610 15000.000 0.000 -1.154
9 27.00 1500.02 122 188 0.740 10000.000 0.000 0.610 15000.000 0.000 -1.154
10 30.00 1500.02 127 208 0.740 10000.000 0.000 0.610 15000.000 0.000 -1.154
11 33.00 1500.02 123 215 0.740 10000.000 0.000 0.610 15000.000 0.000 -1.154
12 36.00 1500.02 123 224 0.740 10000.000 0.000 0.610 15000.000 0.000 -1.154
13 39.00 1500.02 135 215 0.740 10000.000 0.000 0.610 15000.000 0.000 -1.154
14 42.00 1500.02 140 207 0.740 10000.000 0.000 0.610 15000.000 0.000 -1.154
15 45.00 1500.02 132 186 0.740 10000.000 0.000 0.610 15000.000 0.000 -1.154
16 48.00 1500.02 139 164 0.740 10000.000 0.000 0.610 15000.000 0.000 -1.154
17 51.00 1500.02 118 135 0.740 10000.000 0.000 0.610 15000.000 0.000 -1.154
18 54.00 1500.02 121 133 0.740 10000.000 0.000 0.610 15000.000 0.000 -1.154
19 57.00 1500.02 120 143 0.740 10000.000 0.000 0.610 15000.000 0.000 -1.154
20 60.00 1500.02 142 165 0.740 10000.000 0.000 0.610 15000.000 0.000 -1.154
21 63.00 1500.02 105 168 0.740 10000.000 0.000 0.610 15000.000 0.000 -1.154
22 66.00 1500.02 113 179 0.740 10000.000 0.000 0.610 15000.000 0.000 -1.154
23 69.00 1500.02 112 226 0.740 10000.000 0.000 0.610 15000.000 0.000 -1.154
24 72.00 1500.02 111 267 0.740 10000.000 0.000 0.610 15000.000 0.000 -1.154
25 75.00 1500.02 121 296 0.740 10000.000 0.000 0.610 15000.000 0.000 -1.154
26 78.00 1500.02 107 334 0.740 10000.000 0.000 0.610 15000.000 0.000 -1.154
27 81.00 1500.02 98 390 0.740 10000.000 0.000 0.610 15000.000 0.000 -1.154
28 84.00 1500.02 129 409 0.740 10000.000 0.000 0.610 15000.000 0.000 -1.154
29 87.00 1500.02 111 409 0.740 10000.000 0.000 0.610 15000.000 0.000 -1.154
30 90.00 1500.02 128 381 0.740 10000.000 0.000 0.610 15000.000 0.000 -1.154
31 93.00 1500.02 134 414 0.740 10000.000 0.000 0.610 15000.000 0.000 -1.154
32 96.00 1500.02 110 380 0.740 10000.000 0.000 0.610 15000.000 0.000 -1.154
33 99.00 1500.02 124 333 0.740 10000.000 0.000 0.610 15000.000 0.000 -1.154
34 102.00 1500.02 110 290 0.740 10000.000 0.000 0.610 15000.000 0.000 -1.154
35 105.00 1500.02 105 253 0.740 10000.000 0.000 0.610 15000.000 0.000 -1.154
36 108.00 1500.02 131 233 0.740 10000.000 0.000 0.610 15000.000 0.000 -1.154
37 111.00 1500.02 138 184 0.740 10000.000 0.000 0.610 15000.000 0.000 -1.154
38 114.00 1500.02 100 165 0.740 10000.000 0.000 0.610 15000.000 0.000 -1.154
39 117.00 1500.02 139 177 0.740 10000.000 0.000 0.610 15000.000 0.000 -1.154
40 120.00 1500.02 149 188 0.740 10000.000 0.000 0.610 15000.000 0.000 -1.154
41 123.00 1500.02 148 169 0.740 10000.000 0.000 0.610 15000.000 0.000 -1.154
42 126.00 1500.02 134 165 0.740 10000.000 0.000 0.610 15000.000 0.000 -1.154
43 129.00 1500.02 113 171 0.740 10000.000 0.000 0.610 15000.000 0.000 -1.154
44 132.00 1500.02 131 176 0.740 10000.000 0.000 0.610 15000.000 0.000 -1.154
45 135.00 1500.02 113 188 0.740 10000.000 0.000 0.610 15000.000 0.000 -1.154
46 138.00 1500.02 128 186 0.740 10000.000 0.000 0.610 15000.000 0.000 -1.154
47 141.00 1500.02 100 214 0.740 10000.000 0.000 0.610 15000.000 0.000 -1.154
48 144.00 1500.02 109 211 0.740 10000.000 0.000 0.610 15000.000 0.000 -1.154
49 147.00 1500.02 103 214 0.740 10000.000 0.000 0.610 15000.000 0.000 -1.154
50 150.00 1500.02 121 203 0.740 10000.000 0.000 0.610 15000.000 0.000 -1.154
51 153.00 1500.02 94 207 0.740 10000.000 0.000 0.610 15000.000 0.000 -1.154
52 156.00 1500.02 101 189 0.740 10000.000 0.000 0.610 15000.000 0.000 -1.154
53 159.00 1500.02 105 171 0.740 10000.000 0.000 0.610 15000.000 0.000 -1.154
54 162.00 1500.02 111 213 0.740 10000.000 0.000 0.610 15000.000 0.000 -1.154
55 165.00 1500.02 92 172 0.740 10000.000 0.000 0.610 15000.000 0.000 -1.154
56 168.00 1500.02 99 150 0.740 10000.000 0.000 0.610 15000.000 0.000 -1.154
57 171.00 1500.02 112 151 0.740 10000.000 0.000 0.610 15000.000 0.000 -1.154
58 174.00 1500.02 106 168 0.740 10000.000 0.000 0.610 15000.000 0.000 -1.154
59 177.00 1500.02 100 169 0.740 10000.000 0.000 0.610 15000.000 0.000 -1.154
60 180.00 1500.02 122 185 0.740 10000.000 0.000 0.610 15000.000 0.000 -1.154
61 183.00 1500.02 113 173 0.740 10000.000 0.000 0.610 15000.000 0.000 -1.154
62 186.00 1500.02 124 203 0.740 10000.000 0.000 0.610 15000.000 0.000 -1.154
63 189.00 1500.02 93 238 0.740 10000.000 0.000 0.610 15000.000 0.000 -1.154
64 192.00 1500.02 93 274 0.740 10000.000 0.000 0.610 15000.000 0.000 -1.154
65 195.00 1500.02 108 314 0.740 10000.000 0.000 0.610 15000.000 0.000 -1.154
66 198.00 1500.02 98 310 0.740 10000.000 0.000 0.610 15000.000 0.000 -1.154
67 201.00 1500.02 102 366 0.740 10000.000 0.000 0.610 15000.000 0.000 -1.154
68 204.00 1500.02 104 418 0.740 10000.000 0.000 0.610 15000.000 0.000 -1.154
69 207.00 1500.02 115 426 0.740 10000.000 0.000 0.610 15000.000 0.000 -1.154
70 210.00 1500.02 109 419 0.740 10000.000 0.000 0.610 15000.000 0.000 -1.154
71 213.00 1500.02 115 390 0.740 10000.000 0.000 0.610 15000.000 0.000 -1.154
72 216.00 1500.02 129 362 0.740 10000.000 0.000 0.610 15000.000 0.000 -1.154
73 219.00 1500.02 115 300 0.740 10000.000 0.000 0.610 15000.000 0.000 -1.154
74 222.00 1500.02 97 319 0.740 10000.000 0.000 0.610 15000.000 0.000 -1.154
75 225.00 1500.02 99 255 0.740 10000.000 0.000 0.610 15000.000 0.000 -1.154
76 228.00 1500.02 125 193 0.740 10000.000 0.000 0.610 15000.000 0.000 -1.154
77 231.00 1500.02 125 194 0.740 10000.000 0.000 0.610 15000.000 0.000 -1.154
78 234.00 1500.02 132 159 0.740 10000.000 0.000 0.610 15000.000 0.000 -1.154
79 237.00 1500.02 147 132 0.740 10000.000 0.000 0.610 15000.000 0.000 -1.154
80 240.00 1500.02 132 143 0.740 10000.000 0.000 0.610 15000.000 0.000 -1.154
81 243.00 1500.02 147 123 0.740 10000.000 0.000 0.610 15000.000 0.000 -1.154
82 246.00 1500.02 139 144 0.740 10000.000 0.000 0.610 15000.000 0.000 -1.154
83 249.00 1500.02 126 141 0.740 10000.000 0.000 0.610 15000.000 0.000 -1.154
84 252.00 1500.02 128 149 0.740 10000.000 0.000 0.610 15000.000 0.000 -1.154
85 255.00 1500.02 134 143 0.740 10000.000 0.000 0.610 15000.000 0.000 -1.154
86 258.00 1500.02 125 144 0.740 10000.000 0.000 0.610 15000.000 0.000 -1.154
87 261.00 1500.02 99 149 0.740 10000.000 0.000 0.610 15000.000 0.000 -1.154
88 264.00 1500.02 129 161 0.740 10000.000 0.000 0.610 15000.000 0.000 -1.154
89 267.00 1500.02 101 201 0.740 10000.000 0.000 0.610 15000.000 0.000 -1.154
90 270.00 1500.02 113 254 0.740 10000.000 0.000 0.610 15000.000 0.000 -1.154
91 273.00 1500.02 113 283 0.740 10000.000 0.000 0.610 15000.000 0.000 -1.154
92 276.00 1500.02 136 355 0.740 10000.000 0.000 0.610 15000.000 0.000 -1.154
93 279.00 1500.02 101 358 0.740 10000.000 0.000 0.610 15000.000 0.000 -1.154
94 282.00 1500.02 105 377 0.740 10000.000 0.000 0.610 15000.000 0.000 -1.154
95 285.00 1500.02 109 402 0.740 10000.000 0.000 0.610 15000.000 0.000 -1.154
96 288.00 1500.02 113 455 0.740 10000.000 0.000 0.610 15000.000 0.000 -1.154
97 291.00 1500.02 100 411 0.740 10000.000 0.000 0.610 15000.000 0.000 -1.154
98 294.00 1500.02 99 399 0.740 10000.000 0.000 0.610 15000.000 0.000 -1.154
99 297.00 1500.02 91 338 0.740 10000.000 0.000 0.610 15000.000 0.000 -1.154
100 300.00 1500.02 121 336 0.740 10000.000 0.000 0.610 15000.000 0.000 -1.154
101 303.00 1500.02 87 270 0.740 10000.000 0.000 0.610 15000.000 0.000 -1.154
102 306.00 1500.02 135 287 0.740 10000.000 0.000 0.610 15000.000 0.000 -1.154
103 309.00 1500.02 98 232 0.740 10000.000 0.000 0.610 15000.000 0.000 -1.154
104 312.00 1500.02 89 194 0.740 10000.000 0.000 0.610 15000.000 0.000 -1.154
105 315.00 1500.02 105 185 0.740 10000.000 0.000 0.610 15000.000 0.000 -1.154
106 318.00 1500.02 102 166 0.740 10000.000 0.000 0.610 15000.000 0.000 -1.154
107 321.00 1500.02 107 183 0.740 10000.000 0.000 0.610 15000.000 0.000 -1.154
108 324.00 1500.02 110 144 0.740 10000.000 0.000 0.610 15000.000 0.000 -1.154
109 327.00 1500.02 127 151 0.740 10000.000 0.000 0.610 15000.000 0.000 -1.154
110 330.00 1500.02 98 165 0.740 10000.000 0.000 0.610 15000.000 0.000 -1.154
111 333.00 1500.02 92 155 0.740 10000.000 0.000 0.610 15000.000 0.000 -1.154
112 336.00 1500.02 118 175 0.740 10000.000 0.000 0.610 15000.000 0.000 -1.154
113 339.00 1500.02 116 155 0.740 10000.000 0.000 0.610 15000.000 0.000 -1.154
114 342.00 1500.02 130 191 0.740 10000.000 0.000 0.610 15000.000 0.000 -1.154
115 345.00 1500.02 125 237 0.740 10000.000 0.000 0.610 15000.000 0.000 -1.154
116 348.00 1500.02 124 235 0.740 10000.000 0.000 0.610 15000.000 0.000 -1.154
117 351.00 1500.02 147 217 0.740 10000.000 0.000 0.610 15000.000 0.000 -1.154
118 354.00 1500.02 152 221 0.740 10000.000 0.000 0.610 15000.000 0.000 -1.154
119 357.00 1500.02 136 205 0.740 10000.000 0.000 0.610 15000.000 0.000 -1.154
120 360.00 1500.02 113 215 0.740 10000.000 0.000 0.610 15000.000 0.000 -1.154
121 363.00 1500.02 142 180 0.740 10000.000 0.000 0.610 15000.000 0.000 -1.154
122 366.00 1500.02 120 178 0.740 10000.000 0.000 0.610 15000.000 0.000 -1.154
123 369.00 1500.02 121 184 0.740 10000.000 0.000 0.610 15000.000 0.000 -1.154
124 372.00 1500.02 104 174 0.740 10000.000 0.000 0.610 15000.000 0.000 -1.154
125 375.00 1500.02 108 158 0.740 10000.000 0.000 0.610 15000.000 0.000 -1.154
126 378.00 1500.02 120 170 0.740 10000.000 0.000 0.610 15000.000 0.000 -1.154
127 381.00 1500.02 113 174 0.740 10000.000 0.000 0.610 15000.000 0.000 -1.154
128 384.00 1500.02 104 206 0.740 10000.000 0.000 0.610 15000.000 0.000 -1.154
129 387.00 1500.02 104 221 0.740 10000.000 0.000 0.610 15000.000 0.000 -1.154
130 390.00 1500.02 104 265 0.740 10000.000 0.000 0.610 15000.000 0.000 -1.154
131 393.00 1500.02 136 290 0.740 10000.000 0.000 0.610 15000.000 0.000 -1.154
132 396.00 1500.02 104 325 0.740 10000.000 0.000 0.610 15000.000 0.000 -1.154
133 399.00 1500.02 125 347 0.740 10000.000 0.000 0.610 15000.000 0.000 -1.154
134 402.00 1500.02 94 378 0.740 10000.000 0.000 0.610 15000.000 0.000 -1.154
135 405.00 1500.02 108 377 0.740 10000.000 0.000 0.610 15000.000 0.000 -1.154
136 408.00 1500.02 130 403 0.740 10000.000 0.000 0.610 15000.000 0.000 -1.154
137 411.00 1500.02 124 405 0.740 10000.000 0.000 0.610 15000.000 0.000 -1.154
138 414.00 1500.02 111 380 0.740 10000.000 0.000 0.610 15000.000 0.000 -1.154
139 417.00 1500.02 111 371 0.740 10000.000 0.000 0.610 15000.000 0.000 -1.154
140 420.00 1500.02 92 347 0.740 10000.000 0.000 0.610 15000.000 0.000 -1.154
141 423.00 1500.02 106 281 0.740 10000.000 0.000 0.610 15000.000 0.000 -1.154
142 426.00 1500.02 129 226 0.740 10000.000 0.000 0.610 15000.000 0.000 -1.154
143 429.00 1500.02 110 202 0.740 10000.000 0.000 0.610 15000.000 0.000 -1.154
144 432.00 1500.02 118 177 0.740 10000.000 0.000 0.610 15000.000 0.000 -1.154
