# BinNR microsec tot-time (s)  O-Beam AUX Ampl_1(V) f_1(Hz) phase_1(deg) Ampl_2(V) f_2(Hz) phase_2(deg) chi(pos)
0 0.00 1500.01 90 150 0.740 10000.000 0.000 0.610 15000.000 0.000 -1.516
1 3.00 1500.01 168 347 0.740 10000.000 0.000 0.610 15000.000 0.000 -1.516
2 6.00 1500.01 212 383 0.740 10000.000 0.000 0.610 15000.000 0.000 -1.516
3 9.00 1500.01 214 370 0.740 10000.000 0.000 0.610 15000.000 0.000 -1.516
4 12.00 1500.01 202 364 0.740 10000.000 0.000 0.610 15000.000 0.000 -1.516
5 15.00 1500.01 191 327 0.740 10000.000 0.000 0.610 15000.000 0.000 -1.516
6 18.00 1500.01 195 275 0.740 10000.000 0.000 0.610 15000.000 0.000 -1.516
7 21.00 1500.01 180 262 0.740 10000.000 0.000 0.610 15000.000 0.000 -1.516
8 24.00 1500.01 184 258 0.740 10000.000 0.000 0.610 15000.000 0.000 -1.516
9 27.00 1500.01 174 226 0.740 10000.000 0.000 0.610 15000.000 0.000 -1.516
10 30.00 1500.01 162 233 0.740 10000.000 0.000 0.610 15000.000 0.000 -1.516
11 33.00 1500.01 158 199 0.740 10000.000 0.000 0.610 15000.000 0.000 -1.516
12 36.00 1500.01 153 203 0.740 10000.000 0.000 0.610 15000.000 0.000 -1.516
13 39.00 1500.01 136 212 0.740 10000.000 0.000 0.610 15000.000 0.000 -1.516
14 42.00 1500.01 132 229 0.740 10000.000 0.000 0.610 15000.000 0.000 -1.516
15 45.00 1500.01 156 273 0.740 10000.000 0.000 0.610 15000.000 0.000 -1.516
16 48.00 1500.01 127 329 0.740 10000.000 0.000 0.610 15000.000 0.000 -1.516
17 51.00 1500.01 144 349 0.740 10000.000 0.000 0.610 15000.000 0.000 -1.516
18 54.00 1500.01 146 368 0.740 10000.000 0.000 0.610 15000.000 0.000 -1.516
19 57.00 1500.01 164 361 0.740 10000.000 0.000 0.610 15000.000 0.000 -1.516
20 60.00 1500.01 135 315 0.740 10000.000 0.000 0.610 15000.000 0.000 -1.516
21 63.00 1500.01 172 320 0.740 10000.000 0.000 0.610 15000.000 0.000 -1.516
22 66.00 1500.01 201 295 0.740 10000.000 0.000 0.610 15000.000 0.000 -1.516
23 69.00 1500.01 195 245 0.740 10000.000 0.000 0.610 15000.000 0.000 -1.516
24 72.00 1500.01 217 172 0.740 10000.000 0.000 0.610 15000.000 0.000 -1.516
25 75.00 1500.01 224 156 0.740 10000.000 0.000 0.610 15000.000 0.000 -1.516
26 78.00 1500.01 247 162 0.740 10000.000 0.000 0.610 15000.000 0.000 -1.516
27 81.00 1500.01 245 144 0.740 10000.000 0.000 0.610 15000.000 0.000 -1.516
28 84.00 1500.01 259 154 0.740 10000.000 0.000 0.610 15000.000 0.000 -1.516
29 87.00 1500.01 258 119 0.740 10000.000 0.000 0.610 15000.000 0.000 -1.516
30 90.00 1500.01 266 179 0.740 10000.000 0.000 0.610 15000.000 0.000 -1.516
31 93.00 1500.01 227 152 0.740 10000.000 0.000 0.610 15000.000 0.000 -1.516
32 96.00 1500.01 233 138 0.740 10000.000 0.000 0.610 15000.000 0.000 -1.516
33 99.00 1500.01 182 140 0.740 10000.000 0.000 0.610 15000.000 0.000 -1.516
34 102.00 1500.01 198 162 0.740 10000.000 0.000 0.610 15000.000 0.000 -1.516
35 105.00 1500.01 177 174 0.740 10000.000 0.000 0.610 15000.000 0.000 -1.516
36 108.00 1500.01 190 210 0.740 10000.000 0.000 0.610 15000.000 0.000 -1.516
37 111.00 1500.01 152 205 0.740 10000.000 0.000 0.610 15000.000 0.000 -1.516
38 114.00 1500.01 166 259 0.740 10000.000 0.000 0.610 15000.000 0.000 -1.516
39 117.00 1500.01 146 263 0.740 10000.000 0.000 0.610 15000.000 0.000 -1.516
40 120.00 1500.01 136 288 0.740 10000.000 0.000 0.610 15000.000 0.000 -1.516
41 123.00 1500.01 124 291 0.740 10000.000 0.000 0.610 15000.000 0.000 -1.516
42 126.00 1500.01 143 286 0.740 10000.000 0.000 0.610 15000.000 0.000 -1.516
43 129.00 1500.01 140 288 0.740 10000.000 0.000 0.610 15000.000 0.000 -1.516
44 132.00 1500.01 126 282 0.740 10000.000 0.000 0.610 15000.000 0.000 -1.516
45 135.00 1500.01 123 286 0.740 10000.000 0.000 0.610 15000.000 0.000 -1.516
46 138.00 1500.01 126 247 0.740 10000.000 0.000 0.610 15000.000 0.000 -1.516
47 141.00 1500.01 164 268 0.740 10000.000 0.000 0.610 15000.000 0.000 -1.516
48 144.00 1500.01 162 257 0.740 10000.000 0.000 0.610 15000.000 0.000 -1.516
49 147.00 1500.01 183 217 0.740 10000.000 0.000 0.610 15000.000 0.000 -1.516
50 150.00 1500.01 187 226 0.740 10000.000 0.000 0.610 15000.000 0.000 -1.516
51 153.00 1500.01 176 221 0.740 10000.000 0.000 0.610 15000.000 0.000 -1.516
52 156.00 1500.01 184 251 0.740 10000.000 0.000 0.610 15000.000 0.000 -1.516
53 159.00 1500.01 202 245 0.740 10000.000 0.000 0.610 15000.000 0.000 -1.516
54 162.00 1500.01 216 234 0.740 10000.000 0.000 0.610 15000.000 0.000 -1.516
55 165.00 1500.01 211 254 0.740 10000.000 0.000 0.610 15000.000 0.000 -1.516
56 168.00 1500.01 168 286 0.740 10000.000 0.000 0.610 15000.000 0.000 -1.516
57 171.00 1500.01 207 280 0.740 10000.000 0.000 0.610 15000.000 0.000 -1.516
58 174.00 1500.01 193 257 0.740 10000.000 0.000 0.610 15000.000 0.000 -1.516
59 177.00 1500.01 181 285 0.740 10000.000 0.000 0.610 15000.000 0.000 -1.516
60 180.00 1500.01 182 262 0.740 10000.000 0.000 0.610 15000.000 0.000 -1.516
61 183.00 1500.01 184 211 0.740 10000.000 0.000 0.610 15000.000 0.000 -1.516
62 186.00 1500.01 174 200 0.740 10000.000 0.000 0.610 15000.000 0.000 -1.516
63 189.00 1500.01 198 197 0.740 10000.000 0.000 0.610 15000.000 0.000 -1.516
64 192.00 1500.01 201 181 0.740 10000.000 0.000 0.610 15000.000 0.000 -1.516
65 195.00 1500.01 178 149 0.740 10000.000 0.000 0.610 15000.000 0.000 -1.516
66 198.00 1500.01 203 156 0.740 10000.000 0.000 0.610 15000.000 0.000 -1.516
67 201.00 1500.01 203 137 0.740 10000.000 0.000 0.610 15000.000 0.000 -1.516
68 204.00 1500.01 201 146 0.740 10000.000 0.000 0.610 15000.000 0.000 -1.516
69 207.00 1500.01 192 143 0.740 10000.000 0.000 0.610 15000.000 0.000 -1.516
70 210.00 1500.01 187 113 0.740 10000.000 0.000 0.610 15000.000 0.000 -1.516
71 213.00 1500.01 218 136 0.740 10000.000 0.000 0.610 15000.000 0.000 -1.516
72 216.00 1500.01 200 153 0.740 10000.000 0.000 0.610 15000.000 0.000 -1.516
73 219.00 1500.01 204 139 0.740 10000.000 0.000 0.610 15000.000 0.000 -1.516
74 222.00 1500.01 203 152 0.740 10000.000 0.000 0.610 15000.000 0.000 -1.516
75 225.00 1500.01 165 186 0.740 10000.000 0.000 0.610 15000.000 0.000 -1.516
76 228.00 1500.01 189 224 0.740 10000.000 0.000 0.610 15000.000 0.000 -1.516
77 231.00 1500.01 155 263 0.740 10000.000 0.000 0.610 15000.000 0.000 -1.516
78 234.00 1500.01 150 332 0.740 10000.000 0.000 0.610 15000.000 0.000 -1.516
79 237.00 1500.01 141 334 0.740 10000.000 0.000 0.610 15000.000 0.000 -1.516
80 240.00 1500.01 143 387 0.740 10000.000 0.000 0.610 15000.000 0.000 -1.516
81 243.00 1500.01 134 428 0.740 10000.000 0.000 0.610 15000.000 0.000 -1.516
82 246.00 1500.01 148 452 0.740 10000.000 0.000 0.610 15000.000 0.000 -1.516
83 249.00 1500.01 144 466 0.740 10000.000 0.000 0.610 15000.000 0.000 -1.516
84 252.00 1500.01 145 456 0.740 10000.000 0.000 0.610 15000.000 0.000 -1.516
85 255.00 1500.01 150 450 0.740 10000.000 0.000 0.610 15000.000 0.000 -1.516
86 258.00 1500.01 148 388 0.740 10000.000 0.000 0.610 15000.000 0.000 -1.516
87 261.00 1500.01 163 339 0.740 10000.000 0.000 0.610 15000.000 0.000 -1.516
88 264.00 1500.01 181 301 0.740 10000.000 0.000 0.610 15000.000 0.000 -1.516
89 267.00 1500.01 204 264 0.740 10000.000 0.000 0.610 15000.000 0.000 -1.516
90 270.00 1500.01 199 184 0.740 10000.000 0.000 0.610 15000.000 0.000 -1.516
91 273.00 1500.01 189 175 0.740 10000.000 0.000 0.610 15000.000 0.000 -1.516
92 276.00 1500.01 235 165 0.740 10000.000 0.000 0.610 15000.000 0.000 -1.516
93 279.00 1500.01 201 132 0.740 10000.000 0.000 0.610 15000.000 0.000 -1.516
94 282.00 1500.01 214 142 0.740 10000.000 0.000 0.610 15000.000 0.000 -1.516
95 285.00 1500.01 213 152 0.740 10000.000 0.000 0.610 15000.000 0.000 -1.516
96 288.00 1500.01 199 144 0.740 10000.000 0.000 0.610 15000.000 0.000 -1.516
97 291.00 1500.01 209 132 0.740 10000.000 0.000 0.610 15000.000 0.000 -1.516
98 294.00 1500.01 209 161 0.740 10000.000 0.000 0.610 15000.000 0.000 -1.516
99 297.00 1500.01 161 157 0.740 10000.000 0.000 0.610 15000.000 0.000 -1.516
100 300.00 1500.01 182 161 0.740 10000.000 0.000 0.610 15000.000 0.000 -1.516
101 303.00 1500.01 176 174 0.740 10000.000 0.000 0.610 15000.000 0.000 -1.516
102 306.00 1500.01 204 228 0.740 10000.000 0.000 0.610 15000.000 0.000 -1.516
103 309.00 1500.01 210 217 0.740 10000.000 0.000 0.610 15000.000 0.000 -1.516
104 312.00 1500.01 199 230 0.740 10000.000 0.000 0.610 15000.000 0.000 -1.516
105 315.00 1500.01 212 239 0.740 10000.000 0.000 0.610 15000.000 0.000 -1.516
106 318.00 1500.01 204 259 0.740 10000.000 0.000 0.610 15000.000 0.000 -1.516
107 321.00 1500.01 207 281 0.740 10000.000 0.000 0.610 15000.000 0.000 -1.516
108 324.00 1500.01 212 266 0.740 10000.000 0.000 0.610 15000.000 0.000 -1.516
109 327.00 1500.01 215 312 0.740 10000.000 0.000 0.610 15000.000 0.000 -1.516
110 330.00 1500.01 205 290 0.740 10000.000 0.000 0.610 15000.000 0.000 -1.516
111 333.00 1500.01 195 268 0.740 10000.000 0.000 0.610 15000.000 0.000 -1.516
112 336.00 1500.01 194 270 0.740 10000.000 0.000 0.610 15000.000 0.000 -1.516
113 339.00 1500.01 191 212 0.740 10000.000 0.000 0.610 15000.000 0.000 -1.516
114 342.00 1500.01 170 230 0.740 10000.000 0.000 0.610 15000.000 0.000 -1.516
115 345.00 1500.01 149 246 0.740 10000.000 0.000 0.610 15000.000 0.000 -1.516
116 348.00 1500.01 146 254 0.740 10000.000 0.000 0.610 15000.000 0.000 -1.516
117 351.00 1500.01 138 217 0.740 10000.000 0.000 0.610 15000.000 0.000 -1.516
118 354.00 1500.01 123 241 0.740 10000.000 0.000 0.610 15000.000 0.000 -1.516
119 357.00 1500.01 126 269 0.740 10000.000 0.000 0.610 15000.000 0.000 -1.516
120 360.00 1500.01 125 248 0.740 10000.000 0.000 0.610 15000.000 0.000 -1.516
121 363.00 1500.01 138 267 0.740 10000.000 0.000 0.610 15000.000 0.000 -1.516
122 366.00 1500.01 152 285 0.740 10000.000 0.000 0.610 15000.000 0.000 -1.516
123 369.00 1500.01 147 301 0.740 10000.000 0.000 0.610 15000.000 0.000 -1.516
124 372.00 1500.01 138 260 0.740 10000.000 0.000 0.610 15000.000 0.000 -1.516
125 375.00 1500.01 161 259 0.740 10000.000 0.000 0.610 15000.000 0.000 -1.516
126 378.00 1500.01 187 267 0.740 10000.000 0.000 0.610 15000.000 0.000 -1.516
127 381.00 1500.01 140 266 0.740 10000.000 0.000 0.610 15000.000 0.000 -1.516
128 384.00 1500.01 189 230 0.740 10000.000 0.000 0.610 15000.000 0.000 -1.516
129 387.00 1500.01 202 202 0.740 10000.000 0.000 0.610 15000.000 0.000 -1.516
130 390.00 1500.01 181 201 0.740 10000.000 0.000 0.610 15000.000 0.000 -1.516
131 393.00 1500.01 220 150 0.740 10000.000 0.000 0.610 15000.000 0.000 -1.516
132 396.00 1500.01 242 147 0.740 10000.000 0.000 0.610 15000.000 0.000 -1.516
133 399.00 1500.01 202 135 0.740 10000.000 0.000 0.610 15000.000 0.000 -1.516
134 402.00 1500.01 208 127 0.740 10000.000 0.000 0.610 15000.000 0.000 -1.516
135 405.00 1500.01 178 129 0.740 10000.000 0.000 0.610 15000.000 0.000 -1.516
136 408.00 1500.01 194 158 0.740 10000.000 0.000 0.610 15000.000 0.000 -1.516
137 411.00 1500.01 204 133 0.740 10000.000 0.000 0.610 15000.000 0.000 -1.516
138 414.00 1500.01 172 135 0.740 10000.000 0.000 0.610 15000.000 0.000 -1.516
139 417.00 1500.01 219 134 0.740 10000.000 0.000 0.610 15000.000 0.000 -1.516
140 420.00 1500.01 191 142 0.740 10000.000 0.000 0.610 15000.000 0.000 -1.516
141 423.00 1500.01 197 185 0.740 10000.000 0.000 0.610 15000.000 0.000 -1.516
142 426.00 1500.01 188 220 0.740 10000.000 0.000 0.610 15000.000 0.000 -1.516
143 429.00 1500.01 191 231 0.740 10000.000 0.000 0.610 15000.000 0.000 -1.516
144 432.00 1500.01 200 329 0.740 10000.000 0.000 0.610 15000.000 0.000 -1.516
