# BinNR microsec tot-time (s)  O-Beam AUX Ampl_1(V) f_1(Hz) phase_1(deg) Ampl_2(V) f_2(Hz) phase_2(deg) chi(pos)
0 0.00 1500.01 66 64 0.740 10000.000 0.000 0.610 15000.000 0.000 -1.329
1 3.00 1500.01 134 181 0.740 10000.000 0.000 0.610 15000.000 0.000 -1.329
2 6.00 1500.01 137 187 0.740 10000.000 0.000 0.610 15000.000 0.000 -1.329
3 9.00 1500.01 130 160 0.740 10000.000 0.000 0.610 15000.000 0.000 -1.329
4 12.00 1500.01 120 157 0.740 10000.000 0.000 0.610 15000.000 0.000 -1.329
5 15.00 1500.01 132 128 0.740 10000.000 0.000 0.610 15000.000 0.000 -1.329
6 18.00 1500.01 123 125 0.740 10000.000 0.000 0.610 15000.000 0.000 -1.329
7 21.00 1500.01 115 129 0.740 10000.000 0.000 0.610 15000.000 0.000 -1.329
8 24.00 1500.01 144 117 0.740 10000.000 0.000 0.610 15000.000 0.000 -1.329
9 27.00 1500.01 112 115 0.740 10000.000 0.000 0.610 15000.000 0.000 -1.329
10 30.00 1500.01 125 120 0.740 10000.000 0.000 0.610 15000.000 0.000 -1.329
11 33.00 1500.01 121 130 0.740 10000.000 0.000 0.610 15000.000 0.000 -1.329
12 36.00 1500.01 106 154 0.740 10000.000 0.000 0.610 15000.000 0.000 -1.329
13 39.00 1500.01 103 134 0.740 10000.000 0.000 0.610 15000.000 0.000 -1.329
14 42.00 1500.01 110 122 0.740 10000.000 0.000 0.610 15000.000 0.000 -1.329
15 45.00 1500.01 97 152 0.740 10000.000 0.000 0.610 15000.000 0.000 -1.329
16 48.00 1500.01 111 127 0.740 10000.000 0.000 0.610 15000.000 0.000 -1.329
17 51.00 1500.01 117 165 0.740 10000.000 0.000 0.610 15000.000 0.000 -1.329
18 54.00 1500.01 119 154 0.740 10000.000 0.000 0.610 15000.000 0.000 -1.329
19 57.00 1500.01 106 168 0.740 10000.000 0.000 0.610 15000.000 0.000 -1.329
20 60.00 1500.01 106 150 0.740 10000.000 0.000 0.610 15000.000 0.000 -1.329
21 63.00 1500.01 111 130 0.740 10000.000 0.000 0.610 15000.000 0.000 -1.329
22 66.00 1500.01 137 128 0.740 10000.000 0.000 0.610 15000.000 0.000 -1.329
23 69.00 1500.01 141 123 0.740 10000.000 0.000 0.610 15000.000 0.000 -1.329
24 72.00 1500.01 134 133 0.740 10000.000 0.000 0.610 15000.000 0.000 -1.329
25 75.00 1500.01 148 171 0.740 10000.000 0.000 0.610 15000.000 0.000 -1.329
26 78.00 1500.01 169 164 0.740 10000.000 0.000 0.610 15000.000 0.000 -1.329
27 81.00 1500.01 191 196 0.740 10000.000 0.000 0.610 15000.000 0.000 -1.329
28 84.00 1500.01 159 210 0.740 10000.000 0.000 0.610 15000.000 0.000 -1.329
29 87.00 1500.01 150 190 0.740 10000.000 0.000 0.610 15000.000 0.000 -1.329
30 90.00 1500.01 156 228 0.740 10000.000 0.000 0.610 15000.000 0.000 -1.329
31 93.00 1500.01 158 160 0.740 10000.000 0.000 0.610 15000.000 0.000 -1.329
32 96.00 1500.01 164 208 0.740 10000.000 0.000 0.610 15000.000 0.000 -1.329
33 99.00 1500.01 142 179 0.740 10000.000 0.000 0.610 15000.000 0.000 -1.329
34 102.00 1500.01 130 177 0.740 10000.000 0.000 0.610 15000.000 0.000 -1.329
35 105.00 1500.01 144 145 0.740 10000.000 0.000 0.610 15000.000 0.000 -1.329
36 108.00 1500.01 142 134 0.740 10000.000 0.000 0.610 15000.000 0.000 -1.329
37 111.00 1500.01 129 164 0.740 10000.000 0.000 0.610 15000.000 0.000 -1.329
38 114.00 1500.01 118 121 0.740 10000.000 0.000 0.610 15000.000 0.000 -1.329
39 117.00 1500.01 117 130 0.740 10000.000 0.000 0.610 15000.000 0.000 -1.329
40 120.00 1500.01 115 137 0.740 10000.000 0.000 0.610 15000.000 0.000 -1.329
41 123.00 1500.01 113 133 0.740 10000.000 0.000 0.610 15000.000 0.000 -1.329
42 126.00 1500.01 105 141 0.740 10000.000 0.000 0.610 15000.000 0.000 -1.329
43 129.00 1500.01 109 144 0.740 10000.000 0.000 0.610 15000.000 0.000 -1.329
44 132.00 1500.01 114 137 0.740 10000.000 0.000 0.610 15000.000 0.000 -1.329
45 135.00 1500.01 104 117 0.740 10000.000 0.000 0.610 15000.000 0.000 -1.329
46 138.00 1500.01 94 172 0.740 10000.000 0.000 0.610 15000.000 0.000 -1.329
47 141.00 1500.01 96 133 0.740 10000.000 0.000 0.610 15000.000 0.000 -1.329
48 144.00 1500.01 106 162 0.740 10000.000 0.000 0.610 15000.000 0.000 -1.329
49 147.00 1500.01 101 152 0.740 10000.000 0.000 0.610 15000.000 0.000 -1.329
50 150.00 1500.01 115 115 0.740 10000.000 0.000 0.610 15000.000 0.000 -1.329
51 153.00 1500.01 139 122 0.740 10000.000 0.000 0.610 15000.000 0.000 -1.329
52 156.00 1500.01 133 121 0.740 10000.000 0.000 0.610 15000.000 0.000 -1.329
53 159.00 1500.01 152 144 0.740 10000.000 0.000 0.610 15000.000 0.000 -1.329
54 162.00 1500.01 126 150 0.740 10000.000 0.000 0.610 15000.000 0.000 -1.329
55 165.00 1500.01 151 130 0.740 10000.000 0.000 0.610 15000.000 0.000 -1.329
56 168.00 1500.01 141 142 0.740 10000.000 0.000 0.610 15000.000 0.000 -1.329
57 171.00 1500.01 136 166 0.740 10000.000 0.000 0.610 15000.000 0.000 -1.329
58 174.00 1500.01 131 131 0.740 10000.000 0.000 0.610 15000.000 0.000 -1.329
59 177.00 1500.01 110 143 0.740 10000.000 0.000 0.610 15000.000 0.000 -1.329
60 180.00 1500.01 117 125 0.740 10000.000 0.000 0.610 15000.000 0.000 -1.329
61 183.00 1500.01 96 126 0.740 10000.000 0.000 0.610 15000.000 0.000 -1.329
62 186.00 1500.01 145 143 0.740 10000.000 0.000 0.610 15000.000 0.000 -1.329
63 189.00 1500.01 138 147 0.740 10000.000 0.000 0.610 15000.000 0.000 -1.329
64 192.00 1500.01 127 147 0.740 10000.000 0.000 0.610 15000.000 0.000 -1.329
65 195.00 1500.01 137 163 0.740 10000.000 0.000 0.610 15000.000 0.000 -1.329
66 198.00 1500.01 114 187 0.740 10000.000 0.000 0.610 15000.000 0.000 -1.329
67 201.00 1500.01 134 188 0.740 10000.000 0.000 0.610 15000.000 0.000 -1.329
68 204.00 1500.01 123 219 0.740 10000.000 0.000 0.610 15000.000 0.000 -1.329
69 207.00 1500.01 129 223 0.740 10000.000 0.000 0.610 15000.000 0.000 -1.329
70 210.00 1500.01 126 236 0.740 10000.000 0.000 0.610 15000.000 0.000 -1.329
71 213.00 1500.01 124 205 0.740 10000.000 0.000 0.610 15000.000 0.000 -1.329
72 216.00 1500.01 126 190 0.740 10000.000 0.000 0.610 15000.000 0.000 -1.329
73 219.00 1500.01 120 166 0.740 10000.000 0.000 0.610 15000.000 0.000 -1.329
74 222.00 1500.01 112 154 0.740 10000.000 0.000 0.610 15000.000 0.000 -1.329
75 225.00 1500.01 136 161 0.740 10000.000 0.000 0.610 15000.000 0.000 -1.329
76 228.00 1500.01 116 127 0.740 10000.000 0.000 0.610 15000.000 0.000 -1.329
77 231.00 1500.01 113 138 0.740 10000.000 0.000 0.610 15000.000 0.000 -1.329
78 234.00 1500.01 99 142 0.740 10000.000 0.000 0.610 15000.000 0.000 -1.329
79 237.00 1500.01 110 169 0.740 10000.000 0.000 0.610 15000.000 0.000 -1.329
80 240.00 1500.01 107 191 0.740 10000.000 0.000 0.610 15000.000 0.000 -1.329
81 243.00 1500.01 124 215 0.740 10000.000 0.000 0.610 15000.000 0.000 -1.329
82 246.00 1500.01 121 224 0.740 10000.000 0.000 0.610 15000.000 0.000 -1.329
83 249.00 1500.01 95 217 0.740 10000.000 0.000 0.610 15000.000 0.000 -1.329
84 252.00 1500.01 97 189 0.740 10000.000 0.000 0.610 15000.000 0.000 -1.329
85 255.00 1500.01 101 185 0.740 10000.000 0.000 0.610 15000.000 0.000 -1.329
86 258.00 1500.01 112 161 0.740 10000.000 0.000 0.610 15000.000 0.000 -1.329
87 261.00 1500.01 95 159 0.740 10000.000 0.000 0.610 15000.000 0.000 -1.329
88 264.00 1500.01 119 144 0.740 10000.000 0.000 0.610 15000.000 0.000 -1.329
89 267.00 1500.01 111 118 0.740 10000.000 0.000 0.610 15000.000 0.000 -1.329
90 270.00 1500.01 148 141 0.740 10000.000 0.000 0.610 15000.000 0.000 -1.329
91 273.00 1500.01 143 134 0.740 10000.000 0.000 0.610 15000.000 0.000 -1.329
92 276.00 1500.01 145 162 0.740 10000.000 0.000 0.610 15000.000 0.000 -1.329
93 279.00 1500.01 153 180 0.740 10000.000 0.000 0.610 15000.000 0.000 -1.329
94 282.00 1500.01 153 216 0.740 10000.000 0.000 0.610 15000.000 0.000 -1.329
95 285.00 1500.01 139 232 0.740 10000.000 0.000 0.610 15000.000 0.000 -1.329
96 288.00 1500.01 132 211 0.740 10000.000 0.000 0.610 15000.000 0.000 -1.329
97 291.00 1500.01 131 208 0.740 10000.000 0.000 0.610 15000.000 0.000 -1.329
98 294.00 1500.01 133 187 0.740 10000.000 0.000 0.610 15000.000 0.000 -1.329
99 297.00 1500.01 129 186 0.740 10000.000 0.000 0.610 15000.000 0.000 -1.329
100 300.00 1500.01 135 174 0.740 10000.000 0.000 0.610 15000.000 0.000 -1.329
101 303.00 1500.01 112 159 0.740 10000.000 0.000 0.610 15000.000 0.000 -1.329
102 306.00 1500.01 136 150 0.740 10000.000 0.000 0.610 15000.000 0.000 -1.329
103 309.00 1500.01 103 152 0.740 10000.000 0.000 0.610 15000.000 0.000 -1.329
104 312.00 1500.01 100 128 0.740 10000.000 0.000 0.610 15000.000 0.000 -1.329
105 315.00 1500.01 126 141 0.740 10000.000 0.000 0.610 15000.000 0.000 -1.329
106 318.00 1500.01 125 141 0.740 10000.000 0.000 0.610 15000.000 0.000 -1.329
107 321.00 1500.01 137 134 0.740 10000.000 0.000 0.610 15000.000 0.000 -1.329
108 324.00 1500.01 130 148 0.740 10000.000 0.000 0.610 15000.000 0.000 -1.329
109 327.00 1500.01 126 152 0.740 10000.000 0.000 0.610 15000.000 0.000 -1.329
110 330.00 1500.01 122 135 0.740 10000.000 0.000 0.610 15000.000 0.000 -1.329
111 333.00 1500.01 144 138 0.740 10000.000 0.000 0.610 15000.000 0.000 -1.329
112 336.00 1500.01 127 142 0.740 10000.000 0.000 0.610 15000.000 0.000 -1.329
113 339.00 1500.01 135 128 0.740 10000.000 0.000 0.610 15000.000 0.000 -1.329
114 342.00 1500.01 118 153 0.740 10000.000 0.000 0.610 15000.000 0.000 -1.329
115 345.00 1500.01 153 131 0.740 10000.000 0.000 0.610 15000.000 0.000 -1.329
116 348.00 1500.01 105 139 0.740 10000.000 0.000 0.610 15000.000 0.000 -1.329
117 351.00 1500.01 116 146 0.740 10000.000 0.000 0.610 15000.000 0.000 -1.329
118 354.00 1500.01 109 141 0.740 10000.000 0.000 0.610 15000.000 0.000 -1.329
119 357.00 1500.01 120 140 0.740 10000.000 0.000 0.610 15000.000 0.000 -1.329
120 360.00 1500.01 114 143 0.740 10000.000 0.000 0.610 15000.000 0.000 -1.329
121 363.00 1500.01 108 142 0.740 10000.000 0.000 0.610 15000.000 0.000 -1.329
122 366.00 1500.01 103 156 0.740 10000.000 0.000 0.610 15000.000 0.000 -1.329
123 369.00 1500.01 86 133 0.740 10000.000 0.000 0.610 15000.000 0.000 -1.329
124 372.00 1500.01 106 118 0.740 10000.000 0.000 0.610 15000.000 0.000 -1.329
125 375.00 1500.01 98 133 0.740 10000.000 0.000 0.610 15000.000 0.000 -1.329
126 378.00 1500.01 130 123 0.740 10000.000 0.000 0.610 15000.000 0.000 -1.329
127 381.00 1500.01 108 134 0.740 10000.000 0.000 0.610 15000.000 0.000 -1.329
128 384.00 1500.01 128 130 0.740 10000.000 0.000 0.610 15000.000 0.000 -1.329
129 387.00 1500.01 98 119 0.740 10000.000 0.000 0.610 15000.000 0.000 -1.329
130 390.00 1500.01 138 148 0.740 10000.000 0.000 0.610 15000.000 0.000 -1.329
131 393.00 1500.01 110 168 0.740 10000.000 0.000 0.610 15000.000 0.000 -1.329
132 396.00 1500.01 125 171 0.740 10000.000 0.000 0.610 15000.000 0.000 -1.329
133 399.00 1500.01 107 136 0.740 10000.000 0.000 0.610 15000.000 0.000 -1.329
134 402.00 1500.01 128 178 0.740 10000.000 0.000 0.610 15000.000 0.000 -1.329
135 405.00 1500.01 162 198 0.740 10000.000 0.000 0.610 15000.000 0.000 -1.329
136 408.00 1500.01 121 225 0.740 10000.000 0.000 0.610 15000.000 0.000 -1.329
137 411.00 1500.01 134 218 0.740 10000.000 0.000 0.610 15000.000 0.000 -1.329
138 414.00 1500.01 147 226 0.740 10000.000 0.000 0.610 15000.000 0.000 -1.329
139 417.00 1500.01 139 192 0.740 10000.000 0.000 0.610 15000.000 0.000 -1.329
140 420.00 1500.01 133 177 0.740 10000.000 0.000 0.610 15000.000 0.000 -1.329
141 423.00 1500.01 139 166 0.740 10000.000 0.000 0.610 15000.000 0.000 -1.329
142 426.00 1500.01 121 133 0.740 10000.000 0.000 0.610 15000.000 0.000 -1.329
143 429.00 1500.01 121 153 0.740 10000.000 0.000 0.610 15000.000 0.000 -1.329
144 432.00 1500.01 114 133 0.740 10000.000 0.000 0.610 15000.000 0.000 -1.329
