# BinNR microsec tot-time (s)  O-Beam H-beam AUX Ampl(V) f(Hz) phase(deg) chi(pos)
0 0.00 1200.00 139 1050 3 5.313 2000.000 0.000 -0.352
1 25.00 1200.00 178 976 1 5.313 2000.000 0.000 -0.352
2 50.00 1200.00 198 823 1 5.313 2000.000 0.000 -0.352
3 75.00 1200.00 168 706 4 5.313 2000.000 0.000 -0.352
4 100.00 1200.00 131 585 1 5.313 2000.000 0.000 -0.352
5 125.00 1200.00 139 580 1 5.313 2000.000 0.000 -0.352
6 150.00 1200.00 200 637 2 5.313 2000.000 0.000 -0.352
7 175.00 1200.00 369 613 3 5.313 2000.000 0.000 -0.352
8 200.00 1200.00 551 612 2 5.313 2000.000 0.000 -0.352
9 225.00 1200.00 612 550 4 5.313 2000.000 0.000 -0.352
10 250.00 1200.00 561 525 4 5.313 2000.000 0.000 -0.352
11 275.00 1200.00 543 551 2 5.313 2000.000 0.000 -0.352
12 300.00 1200.00 518 673 2 5.313 2000.000 0.000 -0.352
13 325.00 1200.00 560 851 4 5.313 2000.000 0.000 -0.352
14 350.00 1200.00 566 1009 4 5.313 2000.000 0.000 -0.352
15 375.00 1200.00 627 999 0 5.313 2000.000 0.000 -0.352
16 400.00 1200.00 555 984 1 5.313 2000.000 0.000 -0.352
17 425.00 1200.00 395 976 2 5.313 2000.000 0.000 -0.352
18 450.00 1200.00 236 1007 5 5.313 2000.000 0.000 -0.352
19 475.00 1200.00 154 957 1 5.313 2000.000 0.000 -0.352
20 500.00 1200.00 146 1065 1 5.313 2000.000 0.000 -0.352
21 525.00 1200.00 169 949 2 5.313 2000.000 0.000 -0.352
22 550.00 1200.00 185 852 5 5.313 2000.000 0.000 -0.352
23 575.00 1200.00 167 655 1 5.313 2000.000 0.000 -0.352
24 600.00 1200.00 135 548 1 5.313 2000.000 0.000 -0.352
25 625.00 1200.00 156 543 3 5.313 2000.000 0.000 -0.352
26 650.00 1200.00 229 573 2 5.313 2000.000 0.000 -0.352
27 675.00 1200.00 408 639 4 5.313 2000.000 0.000 -0.352
28 700.00 1200.00 541 597 2 5.313 2000.000 0.000 -0.352
29 725.00 1200.00 602 600 4 5.313 2000.000 0.000 -0.352
30 750.00 1200.00 572 539 3 5.313 2000.000 0.000 -0.352
31 775.00 1200.00 593 542 1 5.313 2000.000 0.000 -0.352
32 800.00 1200.00 543 652 2 5.313 2000.000 0.000 -0.352
33 825.00 1200.00 510 856 1 5.313 2000.000 0.000 -0.352
34 850.00 1200.00 596 990 1 5.313 2000.000 0.000 -0.352
35 875.00 1200.00 626 990 3 5.313 2000.000 0.000 -0.352
36 900.00 1200.00 548 994 2 5.313 2000.000 0.000 -0.352
37 925.00 1200.00 458 971 2 5.313 2000.000 0.000 -0.352
38 950.00 1200.00 224 930 4 5.313 2000.000 0.000 -0.352
39 975.00 1200.00 143 1032 3 5.313 2000.000 0.000 -0.352
