# BinNR microsec tot-time (s)  O-Beam H-beam AUX Ampl(V) f(Hz) phase(deg) chi(pos)
0 0.00 900.00 380 507 1 0.000 3.343 2000.000 1.494
1 25.00 900.00 280 423 2 0.000 3.343 2000.000 1.494
2 50.00 900.00 258 435 1 0.000 3.343 2000.000 1.494
3 75.00 900.00 306 442 0 0.000 3.343 2000.000 1.494
4 100.00 900.00 329 631 2 0.000 3.343 2000.000 1.494
5 125.00 900.00 442 793 1 0.000 3.343 2000.000 1.494
6 150.00 900.00 479 816 0 0.000 3.343 2000.000 1.494
7 175.00 900.00 430 805 2 0.000 3.343 2000.000 1.494
8 200.00 900.00 315 804 3 0.000 3.343 2000.000 1.494
9 225.00 900.00 194 781 2 0.000 3.343 2000.000 1.494
10 250.00 900.00 107 752 3 0.000 3.343 2000.000 1.494
11 275.00 900.00 65 684 0 0.000 3.343 2000.000 1.494
12 300.00 900.00 102 518 3 0.000 3.343 2000.000 1.494
13 325.00 900.00 68 422 0 0.000 3.343 2000.000 1.494
14 350.00 900.00 80 437 3 0.000 3.343 2000.000 1.494
15 375.00 900.00 155 503 2 0.000 3.343 2000.000 1.494
16 400.00 900.00 312 562 1 0.000 3.343 2000.000 1.494
17 425.00 900.00 442 596 2 0.000 3.343 2000.000 1.494
18 450.00 900.00 476 611 1 0.000 3.343 2000.000 1.494
19 475.00 900.00 464 586 3 0.000 3.343 2000.000 1.494
20 500.00 900.00 357 480 1 0.000 3.343 2000.000 1.494
21 525.00 900.00 288 400 2 0.000 3.343 2000.000 1.494
22 550.00 900.00 241 412 2 0.000 3.343 2000.000 1.494
23 575.00 900.00 271 483 1 0.000 3.343 2000.000 1.494
24 600.00 900.00 326 650 4 0.000 3.343 2000.000 1.494
25 625.00 900.00 430 720 0 0.000 3.343 2000.000 1.494
26 650.00 900.00 543 779 3 0.000 3.343 2000.000 1.494
27 675.00 900.00 437 893 3 0.000 3.343 2000.000 1.494
28 700.00 900.00 316 834 1 0.000 3.343 2000.000 1.494
29 725.00 900.00 186 821 0 0.000 3.343 2000.000 1.494
30 750.00 900.00 109 780 0 0.000 3.343 2000.000 1.494
31 775.00 900.00 67 680 1 0.000 3.343 2000.000 1.494
32 800.00 900.00 68 446 4 0.000 3.343 2000.000 1.494
33 825.00 900.00 62 398 2 0.000 3.343 2000.000 1.494
34 850.00 900.00 119 434 2 0.000 3.343 2000.000 1.494
35 875.00 900.00 150 523 4 0.000 3.343 2000.000 1.494
36 900.00 900.00 291 562 1 0.000 3.343 2000.000 1.494
37 925.00 900.00 434 690 0 0.000 3.343 2000.000 1.494
38 950.00 900.00 441 676 1 0.000 3.343 2000.000 1.494
39 975.00 900.00 432 640 1 0.000 3.343 2000.000 1.494
