# BinNR microsec tot-time (s)  O-Beam H-beam AUX Ampl(V) f(Hz) phase(deg) chi(pos)
0 0.00 900.00 236 589 2 0.000 3.343 2000.000 -0.505
1 25.00 900.00 156 492 2 0.000 3.343 2000.000 -0.505
2 50.00 900.00 149 424 1 0.000 3.343 2000.000 -0.505
3 75.00 900.00 143 414 5 0.000 3.343 2000.000 -0.505
4 100.00 900.00 207 489 1 0.000 3.343 2000.000 -0.505
5 125.00 900.00 332 649 2 0.000 3.343 2000.000 -0.505
6 150.00 900.00 397 694 1 0.000 3.343 2000.000 -0.505
7 175.00 900.00 497 745 0 0.000 3.343 2000.000 -0.505
8 200.00 900.00 427 803 3 0.000 3.343 2000.000 -0.505
9 225.00 900.00 317 718 1 0.000 3.343 2000.000 -0.505
10 250.00 900.00 225 630 2 0.000 3.343 2000.000 -0.505
11 275.00 900.00 136 546 1 0.000 3.343 2000.000 -0.505
12 300.00 900.00 127 427 1 0.000 3.343 2000.000 -0.505
13 325.00 900.00 127 386 2 0.000 3.343 2000.000 -0.505
14 350.00 900.00 177 520 0 0.000 3.343 2000.000 -0.505
15 375.00 900.00 301 643 2 0.000 3.343 2000.000 -0.505
16 400.00 900.00 423 738 1 0.000 3.343 2000.000 -0.505
17 425.00 900.00 478 737 2 0.000 3.343 2000.000 -0.505
18 450.00 900.00 440 729 2 0.000 3.343 2000.000 -0.505
19 475.00 900.00 340 686 2 0.000 3.343 2000.000 -0.505
20 500.00 900.00 240 580 1 0.000 3.343 2000.000 -0.505
21 525.00 900.00 159 530 3 0.000 3.343 2000.000 -0.505
22 550.00 900.00 122 415 2 0.000 3.343 2000.000 -0.505
23 575.00 900.00 158 416 1 0.000 3.343 2000.000 -0.505
24 600.00 900.00 227 550 0 0.000 3.343 2000.000 -0.505
25 625.00 900.00 306 670 1 0.000 3.343 2000.000 -0.505
26 650.00 900.00 426 693 1 0.000 3.343 2000.000 -0.505
27 675.00 900.00 489 757 3 0.000 3.343 2000.000 -0.505
28 700.00 900.00 387 716 4 0.000 3.343 2000.000 -0.505
29 725.00 900.00 319 748 0 0.000 3.343 2000.000 -0.505
30 750.00 900.00 183 664 1 0.000 3.343 2000.000 -0.505
31 775.00 900.00 136 554 0 0.000 3.343 2000.000 -0.505
32 800.00 900.00 122 432 1 0.000 3.343 2000.000 -0.505
33 825.00 900.00 139 413 1 0.000 3.343 2000.000 -0.505
34 850.00 900.00 189 467 4 0.000 3.343 2000.000 -0.505
35 875.00 900.00 283 599 2 0.000 3.343 2000.000 -0.505
36 900.00 900.00 389 688 2 0.000 3.343 2000.000 -0.505
37 925.00 900.00 480 723 2 0.000 3.343 2000.000 -0.505
38 950.00 900.00 412 692 4 0.000 3.343 2000.000 -0.505
39 975.00 900.00 329 679 2 0.000 3.343 2000.000 -0.505
