# BinNR microsec tot-time (s)  O-Beam H-beam AUX Ampl(V) f(Hz) phase(deg) chi(pos)
0 0.00 900.00 464 406 0 0.000 3.343 2000.000 -0.934
1 25.00 900.00 358 402 3 0.000 3.343 2000.000 -0.934
2 50.00 900.00 384 462 4 0.000 3.343 2000.000 -0.934
3 75.00 900.00 380 604 4 0.000 3.343 2000.000 -0.934
4 100.00 900.00 426 718 1 0.000 3.343 2000.000 -0.934
5 125.00 900.00 491 802 5 0.000 3.343 2000.000 -0.934
6 150.00 900.00 424 790 1 0.000 3.343 2000.000 -0.934
7 175.00 900.00 331 824 3 0.000 3.343 2000.000 -0.934
8 200.00 900.00 189 774 4 0.000 3.343 2000.000 -0.934
9 225.00 900.00 103 807 2 0.000 3.343 2000.000 -0.934
10 250.00 900.00 67 819 3 0.000 3.343 2000.000 -0.934
11 275.00 900.00 107 774 3 0.000 3.343 2000.000 -0.934
12 300.00 900.00 106 589 2 0.000 3.343 2000.000 -0.934
13 325.00 900.00 99 459 2 0.000 3.343 2000.000 -0.934
14 350.00 900.00 72 382 2 0.000 3.343 2000.000 -0.934
15 375.00 900.00 94 431 1 0.000 3.343 2000.000 -0.934
16 400.00 900.00 175 503 3 0.000 3.343 2000.000 -0.934
17 425.00 900.00 359 486 4 0.000 3.343 2000.000 -0.934
18 450.00 900.00 428 522 5 0.000 3.343 2000.000 -0.934
19 475.00 900.00 504 456 3 0.000 3.343 2000.000 -0.934
20 500.00 900.00 415 423 3 0.000 3.343 2000.000 -0.934
21 525.00 900.00 378 390 3 0.000 3.343 2000.000 -0.934
22 550.00 900.00 356 456 0 0.000 3.343 2000.000 -0.934
23 575.00 900.00 414 599 5 0.000 3.343 2000.000 -0.934
24 600.00 900.00 439 721 5 0.000 3.343 2000.000 -0.934
25 625.00 900.00 491 804 4 0.000 3.343 2000.000 -0.934
26 650.00 900.00 452 778 2 0.000 3.343 2000.000 -0.934
27 675.00 900.00 371 775 0 0.000 3.343 2000.000 -0.934
28 700.00 900.00 204 749 1 0.000 3.343 2000.000 -0.934
29 725.00 900.00 99 806 3 0.000 3.343 2000.000 -0.934
30 750.00 900.00 74 804 1 0.000 3.343 2000.000 -0.934
31 775.00 900.00 90 755 2 0.000 3.343 2000.000 -0.934
32 800.00 900.00 111 612 3 0.000 3.343 2000.000 -0.934
33 825.00 900.00 90 459 2 0.000 3.343 2000.000 -0.934
34 850.00 900.00 85 409 2 0.000 3.343 2000.000 -0.934
35 875.00 900.00 103 429 3 0.000 3.343 2000.000 -0.934
36 900.00 900.00 193 441 1 0.000 3.343 2000.000 -0.934
37 925.00 900.00 339 526 1 0.000 3.343 2000.000 -0.934
38 950.00 900.00 429 513 1 0.000 3.343 2000.000 -0.934
39 975.00 900.00 473 440 3 0.000 3.343 2000.000 -0.934
