# BinNR microsec tot-time (s)  O-Beam AUX Ampl(V) f(Hz) phase(deg) chi(pos)
0 0.00 1200.01 165 465 2.000 10000.000 0.000 1.099
1 3.00 1200.01 334 956 2.000 10000.000 0.000 1.099
2 6.00 1200.01 392 1069 2.000 10000.000 0.000 1.099
3 9.00 1200.01 357 1127 2.000 10000.000 0.000 1.099
4 12.00 1200.01 389 1181 2.000 10000.000 0.000 1.099
5 15.00 1200.01 395 1208 2.000 10000.000 0.000 1.099
6 18.00 1200.01 423 1304 2.000 10000.000 0.000 1.099
7 21.00 1200.01 406 1331 2.000 10000.000 0.000 1.099
8 24.00 1200.01 440 1321 2.000 10000.000 0.000 1.099
9 27.00 1200.01 437 1288 2.000 10000.000 0.000 1.099
10 30.00 1200.01 415 1341 2.000 10000.000 0.000 1.099
11 33.00 1200.01 458 1293 2.000 10000.000 0.000 1.099
12 36.00 1200.01 470 1379 2.000 10000.000 0.000 1.099
13 39.00 1200.01 424 1387 2.000 10000.000 0.000 1.099
14 42.00 1200.01 441 1370 2.000 10000.000 0.000 1.099
15 45.00 1200.01 435 1268 2.000 10000.000 0.000 1.099
16 48.00 1200.01 417 1287 2.000 10000.000 0.000 1.099
17 51.00 1200.01 383 1321 2.000 10000.000 0.000 1.099
18 54.00 1200.01 343 1253 2.000 10000.000 0.000 1.099
19 57.00 1200.01 334 1182 2.000 10000.000 0.000 1.099
20 60.00 1200.01 331 1082 2.000 10000.000 0.000 1.099
21 63.00 1200.01 334 1052 2.000 10000.000 0.000 1.099
22 66.00 1200.01 253 1100 2.000 10000.000 0.000 1.099
23 69.00 1200.01 262 941 2.000 10000.000 0.000 1.099
24 72.00 1200.01 250 909 2.000 10000.000 0.000 1.099
25 75.00 1200.01 267 823 2.000 10000.000 0.000 1.099
26 78.00 1200.01 236 713 2.000 10000.000 0.000 1.099
27 81.00 1200.01 239 679 2.000 10000.000 0.000 1.099
28 84.00 1200.01 288 694 2.000 10000.000 0.000 1.099
29 87.00 1200.01 232 669 2.000 10000.000 0.000 1.099
30 90.00 1200.01 285 662 2.000 10000.000 0.000 1.099
31 93.00 1200.01 288 748 2.000 10000.000 0.000 1.099
32 96.00 1200.01 301 757 2.000 10000.000 0.000 1.099
33 99.00 1200.01 345 793 2.000 10000.000 0.000 1.099
34 102.00 1200.01 346 861 2.000 10000.000 0.000 1.099
35 105.00 1200.01 330 925 2.000 10000.000 0.000 1.099
36 108.00 1200.01 383 1057 2.000 10000.000 0.000 1.099
37 111.00 1200.01 387 1083 2.000 10000.000 0.000 1.099
38 114.00 1200.01 414 1138 2.000 10000.000 0.000 1.099
39 117.00 1200.01 388 1285 2.000 10000.000 0.000 1.099
40 120.00 1200.01 473 1291 2.000 10000.000 0.000 1.099
41 123.00 1200.01 424 1315 2.000 10000.000 0.000 1.099
42 126.00 1200.01 474 1357 2.000 10000.000 0.000 1.099
43 129.00 1200.01 430 1293 2.000 10000.000 0.000 1.099
44 132.00 1200.01 484 1301 2.000 10000.000 0.000 1.099
45 135.00 1200.01 467 1346 2.000 10000.000 0.000 1.099
46 138.00 1200.01 462 1394 2.000 10000.000 0.000 1.099
47 141.00 1200.01 417 1303 2.000 10000.000 0.000 1.099
48 144.00 1200.01 460 1370 2.000 10000.000 0.000 1.099
49 147.00 1200.01 408 1369 2.000 10000.000 0.000 1.099
50 150.00 1200.01 409 1341 2.000 10000.000 0.000 1.099
51 153.00 1200.01 398 1251 2.000 10000.000 0.000 1.099
52 156.00 1200.01 393 1302 2.000 10000.000 0.000 1.099
53 159.00 1200.01 350 1238 2.000 10000.000 0.000 1.099
54 162.00 1200.01 319 1151 2.000 10000.000 0.000 1.099
55 165.00 1200.01 292 1059 2.000 10000.000 0.000 1.099
56 168.00 1200.01 287 1000 2.000 10000.000 0.000 1.099
57 171.00 1200.01 294 843 2.000 10000.000 0.000 1.099
58 174.00 1200.01 277 803 2.000 10000.000 0.000 1.099
59 177.00 1200.01 246 749 2.000 10000.000 0.000 1.099
60 180.00 1200.01 263 719 2.000 10000.000 0.000 1.099
61 183.00 1200.01 232 693 2.000 10000.000 0.000 1.099
62 186.00 1200.01 246 687 2.000 10000.000 0.000 1.099
63 189.00 1200.01 268 683 2.000 10000.000 0.000 1.099
64 192.00 1200.01 267 707 2.000 10000.000 0.000 1.099
65 195.00 1200.01 274 747 2.000 10000.000 0.000 1.099
66 198.00 1200.01 317 774 2.000 10000.000 0.000 1.099
67 201.00 1200.01 308 821 2.000 10000.000 0.000 1.099
68 204.00 1200.01 352 958 2.000 10000.000 0.000 1.099
69 207.00 1200.01 355 1001 2.000 10000.000 0.000 1.099
70 210.00 1200.01 381 1134 2.000 10000.000 0.000 1.099
71 213.00 1200.01 378 1129 2.000 10000.000 0.000 1.099
72 216.00 1200.01 403 1215 2.000 10000.000 0.000 1.099
73 219.00 1200.01 412 1259 2.000 10000.000 0.000 1.099
74 222.00 1200.01 457 1394 2.000 10000.000 0.000 1.099
75 225.00 1200.01 422 1284 2.000 10000.000 0.000 1.099
76 228.00 1200.01 419 1312 2.000 10000.000 0.000 1.099
77 231.00 1200.01 470 1292 2.000 10000.000 0.000 1.099
78 234.00 1200.01 503 1369 2.000 10000.000 0.000 1.099
79 237.00 1200.01 464 1370 2.000 10000.000 0.000 1.099
80 240.00 1200.01 469 1365 2.000 10000.000 0.000 1.099
81 243.00 1200.01 461 1326 2.000 10000.000 0.000 1.099
82 246.00 1200.01 421 1330 2.000 10000.000 0.000 1.099
83 249.00 1200.01 403 1318 2.000 10000.000 0.000 1.099
84 252.00 1200.01 391 1297 2.000 10000.000 0.000 1.099
85 255.00 1200.01 407 1229 2.000 10000.000 0.000 1.099
86 258.00 1200.01 371 1196 2.000 10000.000 0.000 1.099
87 261.00 1200.01 322 1170 2.000 10000.000 0.000 1.099
88 264.00 1200.01 346 1028 2.000 10000.000 0.000 1.099
89 267.00 1200.01 314 990 2.000 10000.000 0.000 1.099
90 270.00 1200.01 295 941 2.000 10000.000 0.000 1.099
91 273.00 1200.01 274 809 2.000 10000.000 0.000 1.099
92 276.00 1200.01 248 777 2.000 10000.000 0.000 1.099
93 279.00 1200.01 213 768 2.000 10000.000 0.000 1.099
94 282.00 1200.01 241 686 2.000 10000.000 0.000 1.099
95 285.00 1200.01 256 674 2.000 10000.000 0.000 1.099
96 288.00 1200.01 242 644 2.000 10000.000 0.000 1.099
97 291.00 1200.01 247 634 2.000 10000.000 0.000 1.099
98 294.00 1200.01 247 745 2.000 10000.000 0.000 1.099
99 297.00 1200.01 300 755 2.000 10000.000 0.000 1.099
100 300.00 1200.01 312 839 2.000 10000.000 0.000 1.099
101 303.00 1200.01 258 701 2.000 10000.000 0.000 1.099
