# BinNR microsec tot-time (s)  O-Beam AUX Ampl(V) f(Hz) phase(deg) chi(pos)
0 0.00 1200.01 146 292 2.000 10000.000 0.000 -1.099
1 3.00 1200.01 263 558 2.000 10000.000 0.000 -1.099
2 6.00 1200.01 279 618 2.000 10000.000 0.000 -1.099
3 9.00 1200.01 292 707 2.000 10000.000 0.000 -1.099
4 12.00 1200.01 299 854 2.000 10000.000 0.000 -1.099
5 15.00 1200.01 316 873 2.000 10000.000 0.000 -1.099
6 18.00 1200.01 332 1036 2.000 10000.000 0.000 -1.099
7 21.00 1200.01 355 1050 2.000 10000.000 0.000 -1.099
8 24.00 1200.01 398 1162 2.000 10000.000 0.000 -1.099
9 27.00 1200.01 370 1202 2.000 10000.000 0.000 -1.099
10 30.00 1200.01 383 1250 2.000 10000.000 0.000 -1.099
11 33.00 1200.01 369 1275 2.000 10000.000 0.000 -1.099
12 36.00 1200.01 448 1208 2.000 10000.000 0.000 -1.099
13 39.00 1200.01 380 1143 2.000 10000.000 0.000 -1.099
14 42.00 1200.01 341 1194 2.000 10000.000 0.000 -1.099
15 45.00 1200.01 284 1064 2.000 10000.000 0.000 -1.099
16 48.00 1200.01 300 1106 2.000 10000.000 0.000 -1.099
17 51.00 1200.01 272 963 2.000 10000.000 0.000 -1.099
18 54.00 1200.01 263 919 2.000 10000.000 0.000 -1.099
19 57.00 1200.01 230 754 2.000 10000.000 0.000 -1.099
20 60.00 1200.01 180 770 2.000 10000.000 0.000 -1.099
21 63.00 1200.01 222 635 2.000 10000.000 0.000 -1.099
22 66.00 1200.01 179 586 2.000 10000.000 0.000 -1.099
23 69.00 1200.01 168 523 2.000 10000.000 0.000 -1.099
24 72.00 1200.01 166 469 2.000 10000.000 0.000 -1.099
25 75.00 1200.01 162 362 2.000 10000.000 0.000 -1.099
26 78.00 1200.01 171 365 2.000 10000.000 0.000 -1.099
27 81.00 1200.01 147 316 2.000 10000.000 0.000 -1.099
28 84.00 1200.01 175 273 2.000 10000.000 0.000 -1.099
29 87.00 1200.01 197 321 2.000 10000.000 0.000 -1.099
30 90.00 1200.01 177 312 2.000 10000.000 0.000 -1.099
31 93.00 1200.01 198 344 2.000 10000.000 0.000 -1.099
32 96.00 1200.01 198 359 2.000 10000.000 0.000 -1.099
33 99.00 1200.01 223 395 2.000 10000.000 0.000 -1.099
34 102.00 1200.01 237 494 2.000 10000.000 0.000 -1.099
35 105.00 1200.01 272 532 2.000 10000.000 0.000 -1.099
36 108.00 1200.01 312 602 2.000 10000.000 0.000 -1.099
37 111.00 1200.01 300 707 2.000 10000.000 0.000 -1.099
38 114.00 1200.01 304 805 2.000 10000.000 0.000 -1.099
39 117.00 1200.01 314 965 2.000 10000.000 0.000 -1.099
40 120.00 1200.01 395 1045 2.000 10000.000 0.000 -1.099
41 123.00 1200.01 384 993 2.000 10000.000 0.000 -1.099
42 126.00 1200.01 377 1158 2.000 10000.000 0.000 -1.099
43 129.00 1200.01 386 1159 2.000 10000.000 0.000 -1.099
44 132.00 1200.01 397 1206 2.000 10000.000 0.000 -1.099
45 135.00 1200.01 382 1238 2.000 10000.000 0.000 -1.099
46 138.00 1200.01 375 1173 2.000 10000.000 0.000 -1.099
47 141.00 1200.01 335 1173 2.000 10000.000 0.000 -1.099
48 144.00 1200.01 328 1160 2.000 10000.000 0.000 -1.099
49 147.00 1200.01 328 1130 2.000 10000.000 0.000 -1.099
50 150.00 1200.01 306 1157 2.000 10000.000 0.000 -1.099
51 153.00 1200.01 285 979 2.000 10000.000 0.000 -1.099
52 156.00 1200.01 284 931 2.000 10000.000 0.000 -1.099
53 159.00 1200.01 244 851 2.000 10000.000 0.000 -1.099
54 162.00 1200.01 223 752 2.000 10000.000 0.000 -1.099
55 165.00 1200.01 192 653 2.000 10000.000 0.000 -1.099
56 168.00 1200.01 205 548 2.000 10000.000 0.000 -1.099
57 171.00 1200.01 147 437 2.000 10000.000 0.000 -1.099
58 174.00 1200.01 130 472 2.000 10000.000 0.000 -1.099
59 177.00 1200.01 169 368 2.000 10000.000 0.000 -1.099
60 180.00 1200.01 136 348 2.000 10000.000 0.000 -1.099
61 183.00 1200.01 161 289 2.000 10000.000 0.000 -1.099
62 186.00 1200.01 139 289 2.000 10000.000 0.000 -1.099
63 189.00 1200.01 178 282 2.000 10000.000 0.000 -1.099
64 192.00 1200.01 164 286 2.000 10000.000 0.000 -1.099
65 195.00 1200.01 196 326 2.000 10000.000 0.000 -1.099
66 198.00 1200.01 225 399 2.000 10000.000 0.000 -1.099
67 201.00 1200.01 224 424 2.000 10000.000 0.000 -1.099
68 204.00 1200.01 245 543 2.000 10000.000 0.000 -1.099
69 207.00 1200.01 244 591 2.000 10000.000 0.000 -1.099
70 210.00 1200.01 317 729 2.000 10000.000 0.000 -1.099
71 213.00 1200.01 307 794 2.000 10000.000 0.000 -1.099
72 216.00 1200.01 311 890 2.000 10000.000 0.000 -1.099
73 219.00 1200.01 328 973 2.000 10000.000 0.000 -1.099
74 222.00 1200.01 342 1047 2.000 10000.000 0.000 -1.099
75 225.00 1200.01 361 1077 2.000 10000.000 0.000 -1.099
76 228.00 1200.01 352 1212 2.000 10000.000 0.000 -1.099
77 231.00 1200.01 386 1067 2.000 10000.000 0.000 -1.099
78 234.00 1200.01 395 1242 2.000 10000.000 0.000 -1.099
79 237.00 1200.01 333 1185 2.000 10000.000 0.000 -1.099
80 240.00 1200.01 388 1135 2.000 10000.000 0.000 -1.099
81 243.00 1200.01 360 1182 2.000 10000.000 0.000 -1.099
82 246.00 1200.01 392 1162 2.000 10000.000 0.000 -1.099
83 249.00 1200.01 295 1161 2.000 10000.000 0.000 -1.099
84 252.00 1200.01 291 1035 2.000 10000.000 0.000 -1.099
85 255.00 1200.01 274 997 2.000 10000.000 0.000 -1.099
86 258.00 1200.01 235 895 2.000 10000.000 0.000 -1.099
87 261.00 1200.01 245 752 2.000 10000.000 0.000 -1.099
88 264.00 1200.01 252 685 2.000 10000.000 0.000 -1.099
89 267.00 1200.01 177 563 2.000 10000.000 0.000 -1.099
90 270.00 1200.01 170 522 2.000 10000.000 0.000 -1.099
91 273.00 1200.01 172 434 2.000 10000.000 0.000 -1.099
92 276.00 1200.01 158 394 2.000 10000.000 0.000 -1.099
93 279.00 1200.01 158 337 2.000 10000.000 0.000 -1.099
94 282.00 1200.01 159 291 2.000 10000.000 0.000 -1.099
95 285.00 1200.01 174 294 2.000 10000.000 0.000 -1.099
96 288.00 1200.01 163 313 2.000 10000.000 0.000 -1.099
97 291.00 1200.01 145 340 2.000 10000.000 0.000 -1.099
98 294.00 1200.01 181 330 2.000 10000.000 0.000 -1.099
99 297.00 1200.01 196 389 2.000 10000.000 0.000 -1.099
100 300.00 1200.01 217 437 2.000 10000.000 0.000 -1.099
101 303.00 1200.01 205 408 2.000 10000.000 0.000 -1.099
