# BinNR microsec tot-time (s)  O-Beam AUX Ampl(V) f(Hz) phase(deg) chi(pos)
0 0.00 1200.00 89 77 2.000 10000.000 0.000 0.505
1 3.00 1200.00 159 183 2.000 10000.000 0.000 0.505
2 6.00 1200.00 173 207 2.000 10000.000 0.000 0.505
3 9.00 1200.00 168 231 2.000 10000.000 0.000 0.505
4 12.00 1200.00 164 275 2.000 10000.000 0.000 0.505
5 15.00 1200.00 191 315 2.000 10000.000 0.000 0.505
6 18.00 1200.00 199 432 2.000 10000.000 0.000 0.505
7 21.00 1200.00 179 483 2.000 10000.000 0.000 0.505
8 24.00 1200.00 219 555 2.000 10000.000 0.000 0.505
9 27.00 1200.00 198 593 2.000 10000.000 0.000 0.505
10 30.00 1200.00 197 674 2.000 10000.000 0.000 0.505
11 33.00 1200.00 183 657 2.000 10000.000 0.000 0.505
12 36.00 1200.00 219 676 2.000 10000.000 0.000 0.505
13 39.00 1200.00 170 660 2.000 10000.000 0.000 0.505
14 42.00 1200.00 196 552 2.000 10000.000 0.000 0.505
15 45.00 1200.00 167 548 2.000 10000.000 0.000 0.505
16 48.00 1200.00 138 481 2.000 10000.000 0.000 0.505
17 51.00 1200.00 132 401 2.000 10000.000 0.000 0.505
18 54.00 1200.00 134 339 2.000 10000.000 0.000 0.505
19 57.00 1200.00 132 298 2.000 10000.000 0.000 0.505
20 60.00 1200.00 134 296 2.000 10000.000 0.000 0.505
21 63.00 1200.00 155 218 2.000 10000.000 0.000 0.505
22 66.00 1200.00 143 212 2.000 10000.000 0.000 0.505
23 69.00 1200.00 123 218 2.000 10000.000 0.000 0.505
24 72.00 1200.00 151 211 2.000 10000.000 0.000 0.505
25 75.00 1200.00 150 171 2.000 10000.000 0.000 0.505
26 78.00 1200.00 148 206 2.000 10000.000 0.000 0.505
27 81.00 1200.00 143 201 2.000 10000.000 0.000 0.505
28 84.00 1200.00 161 239 2.000 10000.000 0.000 0.505
29 87.00 1200.00 159 221 2.000 10000.000 0.000 0.505
30 90.00 1200.00 154 244 2.000 10000.000 0.000 0.505
31 93.00 1200.00 135 210 2.000 10000.000 0.000 0.505
32 96.00 1200.00 125 210 2.000 10000.000 0.000 0.505
33 99.00 1200.00 133 170 2.000 10000.000 0.000 0.505
34 102.00 1200.00 150 170 2.000 10000.000 0.000 0.505
35 105.00 1200.00 128 193 2.000 10000.000 0.000 0.505
36 108.00 1200.00 168 230 2.000 10000.000 0.000 0.505
37 111.00 1200.00 168 257 2.000 10000.000 0.000 0.505
38 114.00 1200.00 175 288 2.000 10000.000 0.000 0.505
39 117.00 1200.00 188 327 2.000 10000.000 0.000 0.505
40 120.00 1200.00 210 412 2.000 10000.000 0.000 0.505
41 123.00 1200.00 210 481 2.000 10000.000 0.000 0.505
42 126.00 1200.00 234 522 2.000 10000.000 0.000 0.505
43 129.00 1200.00 225 503 2.000 10000.000 0.000 0.505
44 132.00 1200.00 201 586 2.000 10000.000 0.000 0.505
45 135.00 1200.00 203 663 2.000 10000.000 0.000 0.505
46 138.00 1200.00 213 655 2.000 10000.000 0.000 0.505
47 141.00 1200.00 180 601 2.000 10000.000 0.000 0.505
48 144.00 1200.00 183 554 2.000 10000.000 0.000 0.505
49 147.00 1200.00 146 560 2.000 10000.000 0.000 0.505
50 150.00 1200.00 164 474 2.000 10000.000 0.000 0.505
51 153.00 1200.00 161 425 2.000 10000.000 0.000 0.505
52 156.00 1200.00 127 355 2.000 10000.000 0.000 0.505
53 159.00 1200.00 146 297 2.000 10000.000 0.000 0.505
54 162.00 1200.00 132 273 2.000 10000.000 0.000 0.505
55 165.00 1200.00 136 203 2.000 10000.000 0.000 0.505
56 168.00 1200.00 145 194 2.000 10000.000 0.000 0.505
57 171.00 1200.00 151 169 2.000 10000.000 0.000 0.505
58 174.00 1200.00 141 199 2.000 10000.000 0.000 0.505
59 177.00 1200.00 165 231 2.000 10000.000 0.000 0.505
60 180.00 1200.00 150 210 2.000 10000.000 0.000 0.505
61 183.00 1200.00 140 245 2.000 10000.000 0.000 0.505
62 186.00 1200.00 138 214 2.000 10000.000 0.000 0.505
63 189.00 1200.00 124 263 2.000 10000.000 0.000 0.505
64 192.00 1200.00 178 240 2.000 10000.000 0.000 0.505
65 195.00 1200.00 149 224 2.000 10000.000 0.000 0.505
66 198.00 1200.00 179 197 2.000 10000.000 0.000 0.505
67 201.00 1200.00 167 204 2.000 10000.000 0.000 0.505
68 204.00 1200.00 153 193 2.000 10000.000 0.000 0.505
69 207.00 1200.00 167 193 2.000 10000.000 0.000 0.505
70 210.00 1200.00 151 218 2.000 10000.000 0.000 0.505
71 213.00 1200.00 172 228 2.000 10000.000 0.000 0.505
72 216.00 1200.00 181 318 2.000 10000.000 0.000 0.505
73 219.00 1200.00 190 399 2.000 10000.000 0.000 0.505
74 222.00 1200.00 216 449 2.000 10000.000 0.000 0.505
75 225.00 1200.00 214 475 2.000 10000.000 0.000 0.505
76 228.00 1200.00 209 506 2.000 10000.000 0.000 0.505
77 231.00 1200.00 199 591 2.000 10000.000 0.000 0.505
78 234.00 1200.00 222 685 2.000 10000.000 0.000 0.505
79 237.00 1200.00 198 651 2.000 10000.000 0.000 0.505
80 240.00 1200.00 189 654 2.000 10000.000 0.000 0.505
81 243.00 1200.00 172 621 2.000 10000.000 0.000 0.505
82 246.00 1200.00 190 559 2.000 10000.000 0.000 0.505
83 249.00 1200.00 164 512 2.000 10000.000 0.000 0.505
84 252.00 1200.00 178 418 2.000 10000.000 0.000 0.505
85 255.00 1200.00 138 350 2.000 10000.000 0.000 0.505
86 258.00 1200.00 154 307 2.000 10000.000 0.000 0.505
87 261.00 1200.00 157 256 2.000 10000.000 0.000 0.505
88 264.00 1200.00 136 229 2.000 10000.000 0.000 0.505
89 267.00 1200.00 119 189 2.000 10000.000 0.000 0.505
90 270.00 1200.00 128 189 2.000 10000.000 0.000 0.505
91 273.00 1200.00 142 208 2.000 10000.000 0.000 0.505
92 276.00 1200.00 151 225 2.000 10000.000 0.000 0.505
93 279.00 1200.00 177 256 2.000 10000.000 0.000 0.505
94 282.00 1200.00 159 250 2.000 10000.000 0.000 0.505
95 285.00 1200.00 151 245 2.000 10000.000 0.000 0.505
96 288.00 1200.00 168 222 2.000 10000.000 0.000 0.505
97 291.00 1200.00 164 223 2.000 10000.000 0.000 0.505
98 294.00 1200.00 164 210 2.000 10000.000 0.000 0.505
99 297.00 1200.00 158 217 2.000 10000.000 0.000 0.505
100 300.00 1200.00 141 203 2.000 10000.000 0.000 0.505
101 303.00 1200.00 118 165 2.000 10000.000 0.000 0.505
