# BinNR microsec tot-time (s)  O-Beam AUX Ampl(V) f(Hz) phase(deg) chi(pos)
0 0.00 1200.01 140 273 2.000 10000.000 0.000 0.088
1 3.00 1200.01 242 518 2.000 10000.000 0.000 0.088
2 6.00 1200.01 228 438 2.000 10000.000 0.000 0.088
3 9.00 1200.01 204 381 2.000 10000.000 0.000 0.088
4 12.00 1200.01 204 282 2.000 10000.000 0.000 0.088
5 15.00 1200.01 153 263 2.000 10000.000 0.000 0.088
6 18.00 1200.01 156 218 2.000 10000.000 0.000 0.088
7 21.00 1200.01 155 202 2.000 10000.000 0.000 0.088
8 24.00 1200.01 139 193 2.000 10000.000 0.000 0.088
9 27.00 1200.01 148 195 2.000 10000.000 0.000 0.088
10 30.00 1200.01 134 186 2.000 10000.000 0.000 0.088
11 33.00 1200.01 122 175 2.000 10000.000 0.000 0.088
12 36.00 1200.01 128 197 2.000 10000.000 0.000 0.088
13 39.00 1200.01 131 173 2.000 10000.000 0.000 0.088
14 42.00 1200.01 149 216 2.000 10000.000 0.000 0.088
15 45.00 1200.01 166 178 2.000 10000.000 0.000 0.088
16 48.00 1200.01 185 179 2.000 10000.000 0.000 0.088
17 51.00 1200.01 187 243 2.000 10000.000 0.000 0.088
18 54.00 1200.01 210 240 2.000 10000.000 0.000 0.088
19 57.00 1200.01 211 330 2.000 10000.000 0.000 0.088
20 60.00 1200.01 252 389 2.000 10000.000 0.000 0.088
21 63.00 1200.01 284 414 2.000 10000.000 0.000 0.088
22 66.00 1200.01 306 534 2.000 10000.000 0.000 0.088
23 69.00 1200.01 310 599 2.000 10000.000 0.000 0.088
24 72.00 1200.01 314 663 2.000 10000.000 0.000 0.088
25 75.00 1200.01 302 683 2.000 10000.000 0.000 0.088
26 78.00 1200.01 325 744 2.000 10000.000 0.000 0.088
27 81.00 1200.01 325 775 2.000 10000.000 0.000 0.088
28 84.00 1200.01 366 892 2.000 10000.000 0.000 0.088
29 87.00 1200.01 322 833 2.000 10000.000 0.000 0.088
30 90.00 1200.01 306 828 2.000 10000.000 0.000 0.088
31 93.00 1200.01 317 773 2.000 10000.000 0.000 0.088
32 96.00 1200.01 269 719 2.000 10000.000 0.000 0.088
33 99.00 1200.01 275 703 2.000 10000.000 0.000 0.088
34 102.00 1200.01 245 563 2.000 10000.000 0.000 0.088
35 105.00 1200.01 246 554 2.000 10000.000 0.000 0.088
36 108.00 1200.01 191 484 2.000 10000.000 0.000 0.088
37 111.00 1200.01 216 397 2.000 10000.000 0.000 0.088
38 114.00 1200.01 165 325 2.000 10000.000 0.000 0.088
39 117.00 1200.01 144 275 2.000 10000.000 0.000 0.088
40 120.00 1200.01 144 216 2.000 10000.000 0.000 0.088
41 123.00 1200.01 152 189 2.000 10000.000 0.000 0.088
42 126.00 1200.01 143 184 2.000 10000.000 0.000 0.088
43 129.00 1200.01 117 173 2.000 10000.000 0.000 0.088
44 132.00 1200.01 118 183 2.000 10000.000 0.000 0.088
45 135.00 1200.01 133 188 2.000 10000.000 0.000 0.088
46 138.00 1200.01 108 182 2.000 10000.000 0.000 0.088
47 141.00 1200.01 150 192 2.000 10000.000 0.000 0.088
48 144.00 1200.01 152 188 2.000 10000.000 0.000 0.088
49 147.00 1200.01 159 203 2.000 10000.000 0.000 0.088
50 150.00 1200.01 154 184 2.000 10000.000 0.000 0.088
51 153.00 1200.01 180 198 2.000 10000.000 0.000 0.088
52 156.00 1200.01 203 264 2.000 10000.000 0.000 0.088
53 159.00 1200.01 223 270 2.000 10000.000 0.000 0.088
54 162.00 1200.01 227 359 2.000 10000.000 0.000 0.088
55 165.00 1200.01 244 457 2.000 10000.000 0.000 0.088
56 168.00 1200.01 269 507 2.000 10000.000 0.000 0.088
57 171.00 1200.01 279 607 2.000 10000.000 0.000 0.088
58 174.00 1200.01 301 615 2.000 10000.000 0.000 0.088
59 177.00 1200.01 314 763 2.000 10000.000 0.000 0.088
60 180.00 1200.01 327 772 2.000 10000.000 0.000 0.088
61 183.00 1200.01 314 809 2.000 10000.000 0.000 0.088
62 186.00 1200.01 356 851 2.000 10000.000 0.000 0.088
63 189.00 1200.01 315 824 2.000 10000.000 0.000 0.088
64 192.00 1200.01 326 858 2.000 10000.000 0.000 0.088
65 195.00 1200.01 303 826 2.000 10000.000 0.000 0.088
66 198.00 1200.01 316 704 2.000 10000.000 0.000 0.088
67 201.00 1200.01 268 645 2.000 10000.000 0.000 0.088
68 204.00 1200.01 261 575 2.000 10000.000 0.000 0.088
69 207.00 1200.01 235 465 2.000 10000.000 0.000 0.088
70 210.00 1200.01 197 423 2.000 10000.000 0.000 0.088
71 213.00 1200.01 210 331 2.000 10000.000 0.000 0.088
72 216.00 1200.01 173 282 2.000 10000.000 0.000 0.088
73 219.00 1200.01 172 235 2.000 10000.000 0.000 0.088
74 222.00 1200.01 152 217 2.000 10000.000 0.000 0.088
75 225.00 1200.01 151 199 2.000 10000.000 0.000 0.088
76 228.00 1200.01 147 191 2.000 10000.000 0.000 0.088
77 231.00 1200.01 120 189 2.000 10000.000 0.000 0.088
78 234.00 1200.01 145 204 2.000 10000.000 0.000 0.088
79 237.00 1200.01 125 186 2.000 10000.000 0.000 0.088
80 240.00 1200.01 144 202 2.000 10000.000 0.000 0.088
81 243.00 1200.01 143 197 2.000 10000.000 0.000 0.088
82 246.00 1200.01 154 195 2.000 10000.000 0.000 0.088
83 249.00 1200.01 168 211 2.000 10000.000 0.000 0.088
84 252.00 1200.01 176 238 2.000 10000.000 0.000 0.088
85 255.00 1200.01 184 255 2.000 10000.000 0.000 0.088
86 258.00 1200.01 206 291 2.000 10000.000 0.000 0.088
87 261.00 1200.01 226 345 2.000 10000.000 0.000 0.088
88 264.00 1200.01 267 443 2.000 10000.000 0.000 0.088
89 267.00 1200.01 276 525 2.000 10000.000 0.000 0.088
90 270.00 1200.01 336 595 2.000 10000.000 0.000 0.088
91 273.00 1200.01 298 633 2.000 10000.000 0.000 0.088
92 276.00 1200.01 332 736 2.000 10000.000 0.000 0.088
93 279.00 1200.01 320 747 2.000 10000.000 0.000 0.088
94 282.00 1200.01 341 801 2.000 10000.000 0.000 0.088
95 285.00 1200.01 363 872 2.000 10000.000 0.000 0.088
96 288.00 1200.01 347 827 2.000 10000.000 0.000 0.088
97 291.00 1200.01 302 809 2.000 10000.000 0.000 0.088
98 294.00 1200.01 290 796 2.000 10000.000 0.000 0.088
99 297.00 1200.01 278 683 2.000 10000.000 0.000 0.088
100 300.00 1200.01 279 662 2.000 10000.000 0.000 0.088
101 303.00 1200.01 221 534 2.000 10000.000 0.000 0.088
