# BinNR microsec tot-time (s)  O-Beam AUX Ampl(V) f(Hz) phase(deg) chi(pos)
1 1.00 1200.01 361 1117 5.000 100000.000 0.000 1.505
2 2.00 1200.01 341 1147 5.000 100000.000 0.000 1.505
3 3.00 1200.01 368 1030 5.000 100000.000 0.000 1.505
4 4.00 1200.01 312 1181 5.000 100000.000 0.000 1.505
5 5.00 1200.01 313 1082 5.000 100000.000 0.000 1.505
6 6.00 1200.01 383 1153 5.000 100000.000 0.000 1.505
7 7.00 1200.01 318 1037 5.000 100000.000 0.000 1.505
8 8.00 1200.01 354 1130 5.000 100000.000 0.000 1.505
9 9.00 1200.01 341 1059 5.000 100000.000 0.000 1.505
10 10.00 1200.01 350 1120 5.000 100000.000 0.000 1.505
11 11.00 1200.01 331 982 5.000 100000.000 0.000 1.505
12 12.00 1200.01 372 1053 5.000 100000.000 0.000 1.505
13 13.00 1200.01 344 1036 5.000 100000.000 0.000 1.505
14 14.00 1200.01 327 1094 5.000 100000.000 0.000 1.505
15 15.00 1200.01 319 1143 5.000 100000.000 0.000 1.505
16 16.00 1200.01 314 1165 5.000 100000.000 0.000 1.505
17 17.00 1200.01 343 1052 5.000 100000.000 0.000 1.505
18 18.00 1200.01 341 1064 5.000 100000.000 0.000 1.505
19 19.00 1200.01 317 968 5.000 100000.000 0.000 1.505
20 20.00 1200.01 367 1047 5.000 100000.000 0.000 1.505
21 21.00 1200.01 352 1009 5.000 100000.000 0.000 1.505
22 22.00 1200.01 353 1032 5.000 100000.000 0.000 1.505
23 23.00 1200.01 331 1123 5.000 100000.000 0.000 1.505
24 24.00 1200.01 336 1072 5.000 100000.000 0.000 1.505
25 25.00 1200.01 338 1073 5.000 100000.000 0.000 1.505
26 26.00 1200.01 333 1118 5.000 100000.000 0.000 1.505
27 27.00 1200.01 335 1042 5.000 100000.000 0.000 1.505
28 28.00 1200.01 349 1138 5.000 100000.000 0.000 1.505
29 29.00 1200.01 352 1059 5.000 100000.000 0.000 1.505
30 30.00 1200.01 333 1111 5.000 100000.000 0.000 1.505
31 31.00 1200.01 328 977 5.000 100000.000 0.000 1.505
32 32.00 1200.01 363 1062 5.000 100000.000 0.000 1.505
33 33.00 1200.01 317 1029 5.000 100000.000 0.000 1.505
34 34.00 1200.01 362 1110 5.000 100000.000 0.000 1.505
35 35.00 1200.01 325 1031 5.000 100000.000 0.000 1.505
36 36.00 1200.01 378 1128 5.000 100000.000 0.000 1.505
37 37.00 1200.01 340 1068 5.000 100000.000 0.000 1.505
38 38.00 1200.01 382 1084 5.000 100000.000 0.000 1.505
39 39.00 1200.01 323 1010 5.000 100000.000 0.000 1.505
40 40.00 1200.01 357 1067 5.000 100000.000 0.000 1.505
41 41.00 1200.01 347 1008 5.000 100000.000 0.000 1.505
42 42.00 1200.01 353 1085 5.000 100000.000 0.000 1.505
43 43.00 1200.01 347 1005 5.000 100000.000 0.000 1.505
44 44.00 1200.01 328 1140 5.000 100000.000 0.000 1.505
45 45.00 1200.01 325 1077 5.000 100000.000 0.000 1.505
46 46.00 1200.01 293 1118 5.000 100000.000 0.000 1.505
47 47.00 1200.01 354 1139 5.000 100000.000 0.000 1.505
48 48.00 1200.01 348 1136 5.000 100000.000 0.000 1.505
49 49.00 1200.01 342 1023 5.000 100000.000 0.000 1.505
50 50.00 1200.01 366 1055 5.000 100000.000 0.000 1.505
51 51.00 1200.01 313 1076 5.000 100000.000 0.000 1.505
52 52.00 1200.01 392 1066 5.000 100000.000 0.000 1.505
53 53.00 1200.01 325 1036 5.000 100000.000 0.000 1.505
54 54.00 1200.01 336 1129 5.000 100000.000 0.000 1.505
55 55.00 1200.01 317 1081 5.000 100000.000 0.000 1.505
56 56.00 1200.01 365 1121 5.000 100000.000 0.000 1.505
57 57.00 1200.01 339 1105 5.000 100000.000 0.000 1.505
58 58.00 1200.01 361 1102 5.000 100000.000 0.000 1.505
59 59.00 1200.01 294 1028 5.000 100000.000 0.000 1.505
60 60.00 1200.01 357 1095 5.000 100000.000 0.000 1.505
61 61.00 1200.01 314 1023 5.000 100000.000 0.000 1.505
62 62.00 1200.01 358 1107 5.000 100000.000 0.000 1.505
63 63.00 1200.01 339 976 5.000 100000.000 0.000 1.505
64 64.00 1200.01 348 1108 5.000 100000.000 0.000 1.505
65 65.00 1200.01 325 1025 5.000 100000.000 0.000 1.505
66 66.00 1200.01 357 1038 5.000 100000.000 0.000 1.505
67 67.00 1200.01 329 1060 5.000 100000.000 0.000 1.505
68 68.00 1200.01 352 1097 5.000 100000.000 0.000 1.505
69 69.00 1200.01 310 1017 5.000 100000.000 0.000 1.505
70 70.00 1200.01 350 1094 5.000 100000.000 0.000 1.505
71 71.00 1200.01 328 953 5.000 100000.000 0.000 1.505
72 72.00 1200.01 381 1074 5.000 100000.000 0.000 1.505
73 73.00 1200.01 322 1067 5.000 100000.000 0.000 1.505
74 74.00 1200.01 336 1160 5.000 100000.000 0.000 1.505
75 75.00 1200.01 332 1090 5.000 100000.000 0.000 1.505
76 76.00 1200.01 359 1135 5.000 100000.000 0.000 1.505
77 77.00 1200.01 339 1111 5.000 100000.000 0.000 1.505
78 78.00 1200.01 378 1098 5.000 100000.000 0.000 1.505
79 79.00 1200.01 351 1063 5.000 100000.000 0.000 1.505
80 80.00 1200.01 357 1086 5.000 100000.000 0.000 1.505
81 81.00 1200.01 333 1047 5.000 100000.000 0.000 1.505
82 82.00 1200.01 388 1114 5.000 100000.000 0.000 1.505
83 83.00 1200.01 341 993 5.000 100000.000 0.000 1.505
84 84.00 1200.01 360 1081 5.000 100000.000 0.000 1.505
85 85.00 1200.01 350 1011 5.000 100000.000 0.000 1.505
86 86.00 1200.01 355 1070 5.000 100000.000 0.000 1.505
87 87.00 1200.01 350 991 5.000 100000.000 0.000 1.505
88 88.00 1200.01 349 1144 5.000 100000.000 0.000 1.505
89 89.00 1200.01 328 943 5.000 100000.000 0.000 1.505
90 90.00 1200.01 314 1043 5.000 100000.000 0.000 1.505
91 91.00 1200.01 358 952 5.000 100000.000 0.000 1.505
92 92.00 1200.01 398 1003 5.000 100000.000 0.000 1.505
93 93.00 1200.01 352 944 5.000 100000.000 0.000 1.505
94 94.00 1200.01 341 1019 5.000 100000.000 0.000 1.505
95 95.00 1200.01 337 971 5.000 100000.000 0.000 1.505
96 96.00 1200.01 307 1085 5.000 100000.000 0.000 1.505
97 97.00 1200.01 339 1013 5.000 100000.000 0.000 1.505
98 98.00 1200.01 333 1179 5.000 100000.000 0.000 1.505
99 99.00 1200.01 330 1137 5.000 100000.000 0.000 1.505
100 100.00 1200.01 351 1252 5.000 100000.000 0.000 1.505
101 101.00 1200.01 320 1076 5.000 100000.000 0.000 1.505
102 102.00 1200.01 341 1180 5.000 100000.000 0.000 1.505
