# BinNR microsec tot-time (s)  O-Beam AUX Ampl_1(V) f_1(Hz) phase_1(deg) Ampl_2(V) f_2(Hz) phase_2(deg) chi(pos)
0 0.00 1500.04 478 1199 0.000 0.000 0.000 2.050 10000.000 0.000 0.319
1 3.00 1500.04 965 2357 0.000 0.000 0.000 2.050 10000.000 0.000 0.319
2 6.00 1500.04 994 2427 0.000 0.000 0.000 2.050 10000.000 0.000 0.319
3 9.00 1500.04 912 2403 0.000 0.000 0.000 2.050 10000.000 0.000 0.319
4 12.00 1500.04 936 2434 0.000 0.000 0.000 2.050 10000.000 0.000 0.319
5 15.00 1500.04 935 2356 0.000 0.000 0.000 2.050 10000.000 0.000 0.319
6 18.00 1500.04 935 2425 0.000 0.000 0.000 2.050 10000.000 0.000 0.319
7 21.00 1500.04 970 2375 0.000 0.000 0.000 2.050 10000.000 0.000 0.319
8 24.00 1500.04 969 2441 0.000 0.000 0.000 2.050 10000.000 0.000 0.319
9 27.00 1500.04 957 2364 0.000 0.000 0.000 2.050 10000.000 0.000 0.319
10 30.00 1500.04 918 2564 0.000 0.000 0.000 2.050 10000.000 0.000 0.319
11 33.00 1500.04 868 2383 0.000 0.000 0.000 2.050 10000.000 0.000 0.319
12 36.00 1500.04 998 2473 0.000 0.000 0.000 2.050 10000.000 0.000 0.319
13 39.00 1500.04 936 2303 0.000 0.000 0.000 2.050 10000.000 0.000 0.319
14 42.00 1500.04 954 2395 0.000 0.000 0.000 2.050 10000.000 0.000 0.319
15 45.00 1500.04 901 2335 0.000 0.000 0.000 2.050 10000.000 0.000 0.319
16 48.00 1500.04 957 2407 0.000 0.000 0.000 2.050 10000.000 0.000 0.319
17 51.00 1500.04 995 2336 0.000 0.000 0.000 2.050 10000.000 0.000 0.319
18 54.00 1500.04 945 2417 0.000 0.000 0.000 2.050 10000.000 0.000 0.319
19 57.00 1500.04 914 2401 0.000 0.000 0.000 2.050 10000.000 0.000 0.319
20 60.00 1500.04 1036 2462 0.000 0.000 0.000 2.050 10000.000 0.000 0.319
21 63.00 1500.04 894 2292 0.000 0.000 0.000 2.050 10000.000 0.000 0.319
22 66.00 1500.04 926 2481 0.000 0.000 0.000 2.050 10000.000 0.000 0.319
23 69.00 1500.04 960 2322 0.000 0.000 0.000 2.050 10000.000 0.000 0.319
24 72.00 1500.04 945 2411 0.000 0.000 0.000 2.050 10000.000 0.000 0.319
25 75.00 1500.04 919 2353 0.000 0.000 0.000 2.050 10000.000 0.000 0.319
26 78.00 1500.04 949 2529 0.000 0.000 0.000 2.050 10000.000 0.000 0.319
27 81.00 1500.04 925 2452 0.000 0.000 0.000 2.050 10000.000 0.000 0.319
28 84.00 1500.04 973 2353 0.000 0.000 0.000 2.050 10000.000 0.000 0.319
29 87.00 1500.04 980 2420 0.000 0.000 0.000 2.050 10000.000 0.000 0.319
30 90.00 1500.04 986 2394 0.000 0.000 0.000 2.050 10000.000 0.000 0.319
31 93.00 1500.04 895 2418 0.000 0.000 0.000 2.050 10000.000 0.000 0.319
32 96.00 1500.04 954 2388 0.000 0.000 0.000 2.050 10000.000 0.000 0.319
33 99.00 1500.04 917 2421 0.000 0.000 0.000 2.050 10000.000 0.000 0.319
34 102.00 1500.04 979 2383 0.000 0.000 0.000 2.050 10000.000 0.000 0.319
35 105.00 1500.04 928 2291 0.000 0.000 0.000 2.050 10000.000 0.000 0.319
36 108.00 1500.04 961 2420 0.000 0.000 0.000 2.050 10000.000 0.000 0.319
37 111.00 1500.04 930 2483 0.000 0.000 0.000 2.050 10000.000 0.000 0.319
38 114.00 1500.04 954 2405 0.000 0.000 0.000 2.050 10000.000 0.000 0.319
39 117.00 1500.04 938 2477 0.000 0.000 0.000 2.050 10000.000 0.000 0.319
40 120.00 1500.04 935 2386 0.000 0.000 0.000 2.050 10000.000 0.000 0.319
41 123.00 1500.04 900 2403 0.000 0.000 0.000 2.050 10000.000 0.000 0.319
42 126.00 1500.04 954 2460 0.000 0.000 0.000 2.050 10000.000 0.000 0.319
43 129.00 1500.04 909 2362 0.000 0.000 0.000 2.050 10000.000 0.000 0.319
44 132.00 1500.04 885 2364 0.000 0.000 0.000 2.050 10000.000 0.000 0.319
45 135.00 1500.04 989 2370 0.000 0.000 0.000 2.050 10000.000 0.000 0.319
46 138.00 1500.04 907 2424 0.000 0.000 0.000 2.050 10000.000 0.000 0.319
47 141.00 1500.04 930 2366 0.000 0.000 0.000 2.050 10000.000 0.000 0.319
48 144.00 1500.04 910 2432 0.000 0.000 0.000 2.050 10000.000 0.000 0.319
49 147.00 1500.04 892 2385 0.000 0.000 0.000 2.050 10000.000 0.000 0.319
50 150.00 1500.04 916 2370 0.000 0.000 0.000 2.050 10000.000 0.000 0.319
51 153.00 1500.04 932 2452 0.000 0.000 0.000 2.050 10000.000 0.000 0.319
52 156.00 1500.04 951 2497 0.000 0.000 0.000 2.050 10000.000 0.000 0.319
53 159.00 1500.04 882 2417 0.000 0.000 0.000 2.050 10000.000 0.000 0.319
54 162.00 1500.04 901 2450 0.000 0.000 0.000 2.050 10000.000 0.000 0.319
55 165.00 1500.04 937 2368 0.000 0.000 0.000 2.050 10000.000 0.000 0.319
56 168.00 1500.04 872 2422 0.000 0.000 0.000 2.050 10000.000 0.000 0.319
57 171.00 1500.04 915 2369 0.000 0.000 0.000 2.050 10000.000 0.000 0.319
58 174.00 1500.04 960 2444 0.000 0.000 0.000 2.050 10000.000 0.000 0.319
59 177.00 1500.04 890 2380 0.000 0.000 0.000 2.050 10000.000 0.000 0.319
60 180.00 1500.04 931 2426 0.000 0.000 0.000 2.050 10000.000 0.000 0.319
61 183.00 1500.04 875 2432 0.000 0.000 0.000 2.050 10000.000 0.000 0.319
62 186.00 1500.04 904 2393 0.000 0.000 0.000 2.050 10000.000 0.000 0.319
63 189.00 1500.04 949 2375 0.000 0.000 0.000 2.050 10000.000 0.000 0.319
64 192.00 1500.04 967 2443 0.000 0.000 0.000 2.050 10000.000 0.000 0.319
65 195.00 1500.04 924 2353 0.000 0.000 0.000 2.050 10000.000 0.000 0.319
66 198.00 1500.04 940 2405 0.000 0.000 0.000 2.050 10000.000 0.000 0.319
67 201.00 1500.04 863 2379 0.000 0.000 0.000 2.050 10000.000 0.000 0.319
68 204.00 1500.04 906 2358 0.000 0.000 0.000 2.050 10000.000 0.000 0.319
69 207.00 1500.04 891 2339 0.000 0.000 0.000 2.050 10000.000 0.000 0.319
70 210.00 1500.04 958 2351 0.000 0.000 0.000 2.050 10000.000 0.000 0.319
71 213.00 1500.04 906 2436 0.000 0.000 0.000 2.050 10000.000 0.000 0.319
72 216.00 1500.04 909 2435 0.000 0.000 0.000 2.050 10000.000 0.000 0.319
73 219.00 1500.04 944 2426 0.000 0.000 0.000 2.050 10000.000 0.000 0.319
74 222.00 1500.04 965 2448 0.000 0.000 0.000 2.050 10000.000 0.000 0.319
75 225.00 1500.04 883 2427 0.000 0.000 0.000 2.050 10000.000 0.000 0.319
76 228.00 1500.04 991 2490 0.000 0.000 0.000 2.050 10000.000 0.000 0.319
77 231.00 1500.04 936 2354 0.000 0.000 0.000 2.050 10000.000 0.000 0.319
78 234.00 1500.04 923 2427 0.000 0.000 0.000 2.050 10000.000 0.000 0.319
79 237.00 1500.04 961 2372 0.000 0.000 0.000 2.050 10000.000 0.000 0.319
80 240.00 1500.04 930 2384 0.000 0.000 0.000 2.050 10000.000 0.000 0.319
81 243.00 1500.04 888 2368 0.000 0.000 0.000 2.050 10000.000 0.000 0.319
82 246.00 1500.04 929 2424 0.000 0.000 0.000 2.050 10000.000 0.000 0.319
83 249.00 1500.04 889 2404 0.000 0.000 0.000 2.050 10000.000 0.000 0.319
84 252.00 1500.04 959 2347 0.000 0.000 0.000 2.050 10000.000 0.000 0.319
85 255.00 1500.04 925 2306 0.000 0.000 0.000 2.050 10000.000 0.000 0.319
86 258.00 1500.04 1004 2400 0.000 0.000 0.000 2.050 10000.000 0.000 0.319
87 261.00 1500.04 898 2344 0.000 0.000 0.000 2.050 10000.000 0.000 0.319
88 264.00 1500.04 931 2440 0.000 0.000 0.000 2.050 10000.000 0.000 0.319
89 267.00 1500.04 914 2389 0.000 0.000 0.000 2.050 10000.000 0.000 0.319
90 270.00 1500.04 916 2436 0.000 0.000 0.000 2.050 10000.000 0.000 0.319
91 273.00 1500.04 941 2456 0.000 0.000 0.000 2.050 10000.000 0.000 0.319
92 276.00 1500.04 934 2321 0.000 0.000 0.000 2.050 10000.000 0.000 0.319
93 279.00 1500.04 927 2466 0.000 0.000 0.000 2.050 10000.000 0.000 0.319
94 282.00 1500.04 927 2420 0.000 0.000 0.000 2.050 10000.000 0.000 0.319
95 285.00 1500.04 989 2399 0.000 0.000 0.000 2.050 10000.000 0.000 0.319
96 288.00 1500.04 954 2387 0.000 0.000 0.000 2.050 10000.000 0.000 0.319
97 291.00 1500.04 930 2310 0.000 0.000 0.000 2.050 10000.000 0.000 0.319
98 294.00 1500.04 916 2358 0.000 0.000 0.000 2.050 10000.000 0.000 0.319
99 297.00 1500.04 885 2328 0.000 0.000 0.000 2.050 10000.000 0.000 0.319
100 300.00 1500.04 978 2436 0.000 0.000 0.000 2.050 10000.000 0.000 0.319
101 303.00 1500.04 1015 2333 0.000 0.000 0.000 2.050 10000.000 0.000 0.319
102 306.00 1500.04 1005 2489 0.000 0.000 0.000 2.050 10000.000 0.000 0.319
103 309.00 1500.04 958 2510 0.000 0.000 0.000 2.050 10000.000 0.000 0.319
104 312.00 1500.04 952 2425 0.000 0.000 0.000 2.050 10000.000 0.000 0.319
105 315.00 1500.04 914 2422 0.000 0.000 0.000 2.050 10000.000 0.000 0.319
106 318.00 1500.04 911 2322 0.000 0.000 0.000 2.050 10000.000 0.000 0.319
107 321.00 1500.04 912 2417 0.000 0.000 0.000 2.050 10000.000 0.000 0.319
108 324.00 1500.04 967 2337 0.000 0.000 0.000 2.050 10000.000 0.000 0.319
109 327.00 1500.04 927 2408 0.000 0.000 0.000 2.050 10000.000 0.000 0.319
110 330.00 1500.04 950 2447 0.000 0.000 0.000 2.050 10000.000 0.000 0.319
111 333.00 1500.04 914 2398 0.000 0.000 0.000 2.050 10000.000 0.000 0.319
112 336.00 1500.04 935 2305 0.000 0.000 0.000 2.050 10000.000 0.000 0.319
113 339.00 1500.04 913 2357 0.000 0.000 0.000 2.050 10000.000 0.000 0.319
114 342.00 1500.04 919 2396 0.000 0.000 0.000 2.050 10000.000 0.000 0.319
115 345.00 1500.04 927 2413 0.000 0.000 0.000 2.050 10000.000 0.000 0.319
116 348.00 1500.04 910 2554 0.000 0.000 0.000 2.050 10000.000 0.000 0.319
117 351.00 1500.04 898 2419 0.000 0.000 0.000 2.050 10000.000 0.000 0.319
118 354.00 1500.04 925 2437 0.000 0.000 0.000 2.050 10000.000 0.000 0.319
119 357.00 1500.04 937 2308 0.000 0.000 0.000 2.050 10000.000 0.000 0.319
120 360.00 1500.04 978 2395 0.000 0.000 0.000 2.050 10000.000 0.000 0.319
121 363.00 1500.04 951 2334 0.000 0.000 0.000 2.050 10000.000 0.000 0.319
122 366.00 1500.04 960 2410 0.000 0.000 0.000 2.050 10000.000 0.000 0.319
123 369.00 1500.04 918 2448 0.000 0.000 0.000 2.050 10000.000 0.000 0.319
124 372.00 1500.04 896 2498 0.000 0.000 0.000 2.050 10000.000 0.000 0.319
125 375.00 1500.04 914 2476 0.000 0.000 0.000 2.050 10000.000 0.000 0.319
126 378.00 1500.04 971 2422 0.000 0.000 0.000 2.050 10000.000 0.000 0.319
127 381.00 1500.04 922 2282 0.000 0.000 0.000 2.050 10000.000 0.000 0.319
128 384.00 1500.04 986 2469 0.000 0.000 0.000 2.050 10000.000 0.000 0.319
129 387.00 1500.04 945 2415 0.000 0.000 0.000 2.050 10000.000 0.000 0.319
130 390.00 1500.04 1010 2425 0.000 0.000 0.000 2.050 10000.000 0.000 0.319
131 393.00 1500.04 947 2284 0.000 0.000 0.000 2.050 10000.000 0.000 0.319
132 396.00 1500.04 993 2356 0.000 0.000 0.000 2.050 10000.000 0.000 0.319
133 399.00 1500.04 953 2295 0.000 0.000 0.000 2.050 10000.000 0.000 0.319
134 402.00 1500.04 919 2436 0.000 0.000 0.000 2.050 10000.000 0.000 0.319
