# BinNR microsec tot-time (s)  O-Beam AUX Ampl_1(V) f_1(Hz) phase_1(deg) Ampl_2(V) f_2(Hz) phase_2(deg) chi(pos)
0 0.00 1500.00 488 1244 0.000 0.000 0.000 2.050 10000.000 0.000 -0.824
1 3.00 1500.00 954 2460 0.000 0.000 0.000 2.050 10000.000 0.000 -0.824
2 6.00 1500.00 942 2542 0.000 0.000 0.000 2.050 10000.000 0.000 -0.824
3 9.00 1500.00 996 2496 0.000 0.000 0.000 2.050 10000.000 0.000 -0.824
4 12.00 1500.00 969 2456 0.000 0.000 0.000 2.050 10000.000 0.000 -0.824
5 15.00 1500.00 932 2409 0.000 0.000 0.000 2.050 10000.000 0.000 -0.824
6 18.00 1500.00 981 2552 0.000 0.000 0.000 2.050 10000.000 0.000 -0.824
7 21.00 1500.00 958 2473 0.000 0.000 0.000 2.050 10000.000 0.000 -0.824
8 24.00 1500.00 956 2521 0.000 0.000 0.000 2.050 10000.000 0.000 -0.824
9 27.00 1500.00 948 2478 0.000 0.000 0.000 2.050 10000.000 0.000 -0.824
10 30.00 1500.00 974 2446 0.000 0.000 0.000 2.050 10000.000 0.000 -0.824
11 33.00 1500.00 933 2477 0.000 0.000 0.000 2.050 10000.000 0.000 -0.824
12 36.00 1500.00 977 2544 0.000 0.000 0.000 2.050 10000.000 0.000 -0.824
13 39.00 1500.00 939 2455 0.000 0.000 0.000 2.050 10000.000 0.000 -0.824
14 42.00 1500.00 945 2423 0.000 0.000 0.000 2.050 10000.000 0.000 -0.824
15 45.00 1500.00 997 2457 0.000 0.000 0.000 2.050 10000.000 0.000 -0.824
16 48.00 1500.00 953 2434 0.000 0.000 0.000 2.050 10000.000 0.000 -0.824
17 51.00 1500.00 944 2415 0.000 0.000 0.000 2.050 10000.000 0.000 -0.824
18 54.00 1500.00 963 2461 0.000 0.000 0.000 2.050 10000.000 0.000 -0.824
19 57.00 1500.00 973 2435 0.000 0.000 0.000 2.050 10000.000 0.000 -0.824
20 60.00 1500.00 971 2457 0.000 0.000 0.000 2.050 10000.000 0.000 -0.824
21 63.00 1500.00 932 2399 0.000 0.000 0.000 2.050 10000.000 0.000 -0.824
22 66.00 1500.00 900 2554 0.000 0.000 0.000 2.050 10000.000 0.000 -0.824
23 69.00 1500.00 895 2501 0.000 0.000 0.000 2.050 10000.000 0.000 -0.824
24 72.00 1500.00 1002 2533 0.000 0.000 0.000 2.050 10000.000 0.000 -0.824
25 75.00 1500.00 924 2396 0.000 0.000 0.000 2.050 10000.000 0.000 -0.824
26 78.00 1500.00 974 2455 0.000 0.000 0.000 2.050 10000.000 0.000 -0.824
27 81.00 1500.00 895 2335 0.000 0.000 0.000 2.050 10000.000 0.000 -0.824
28 84.00 1500.00 974 2382 0.000 0.000 0.000 2.050 10000.000 0.000 -0.824
29 87.00 1500.00 957 2298 0.000 0.000 0.000 2.050 10000.000 0.000 -0.824
30 90.00 1500.00 937 2441 0.000 0.000 0.000 2.050 10000.000 0.000 -0.824
31 93.00 1500.00 941 2429 0.000 0.000 0.000 2.050 10000.000 0.000 -0.824
32 96.00 1500.00 1000 2423 0.000 0.000 0.000 2.050 10000.000 0.000 -0.824
33 99.00 1500.00 937 2456 0.000 0.000 0.000 2.050 10000.000 0.000 -0.824
34 102.00 1500.00 1009 2499 0.000 0.000 0.000 2.050 10000.000 0.000 -0.824
35 105.00 1500.00 914 2392 0.000 0.000 0.000 2.050 10000.000 0.000 -0.824
36 108.00 1500.00 958 2449 0.000 0.000 0.000 2.050 10000.000 0.000 -0.824
37 111.00 1500.00 932 2392 0.000 0.000 0.000 2.050 10000.000 0.000 -0.824
38 114.00 1500.00 948 2384 0.000 0.000 0.000 2.050 10000.000 0.000 -0.824
39 117.00 1500.00 924 2474 0.000 0.000 0.000 2.050 10000.000 0.000 -0.824
40 120.00 1500.00 1008 2491 0.000 0.000 0.000 2.050 10000.000 0.000 -0.824
41 123.00 1500.00 898 2420 0.000 0.000 0.000 2.050 10000.000 0.000 -0.824
42 126.00 1500.00 990 2381 0.000 0.000 0.000 2.050 10000.000 0.000 -0.824
43 129.00 1500.00 880 2461 0.000 0.000 0.000 2.050 10000.000 0.000 -0.824
44 132.00 1500.00 963 2476 0.000 0.000 0.000 2.050 10000.000 0.000 -0.824
45 135.00 1500.00 972 2357 0.000 0.000 0.000 2.050 10000.000 0.000 -0.824
46 138.00 1500.00 954 2413 0.000 0.000 0.000 2.050 10000.000 0.000 -0.824
47 141.00 1500.00 953 2471 0.000 0.000 0.000 2.050 10000.000 0.000 -0.824
48 144.00 1500.00 985 2425 0.000 0.000 0.000 2.050 10000.000 0.000 -0.824
49 147.00 1500.00 929 2440 0.000 0.000 0.000 2.050 10000.000 0.000 -0.824
50 150.00 1500.00 985 2520 0.000 0.000 0.000 2.050 10000.000 0.000 -0.824
51 153.00 1500.00 939 2512 0.000 0.000 0.000 2.050 10000.000 0.000 -0.824
52 156.00 1500.00 1014 2376 0.000 0.000 0.000 2.050 10000.000 0.000 -0.824
53 159.00 1500.00 980 2373 0.000 0.000 0.000 2.050 10000.000 0.000 -0.824
54 162.00 1500.00 984 2578 0.000 0.000 0.000 2.050 10000.000 0.000 -0.824
55 165.00 1500.00 874 2417 0.000 0.000 0.000 2.050 10000.000 0.000 -0.824
56 168.00 1500.00 955 2468 0.000 0.000 0.000 2.050 10000.000 0.000 -0.824
57 171.00 1500.00 967 2378 0.000 0.000 0.000 2.050 10000.000 0.000 -0.824
58 174.00 1500.00 981 2398 0.000 0.000 0.000 2.050 10000.000 0.000 -0.824
59 177.00 1500.00 921 2466 0.000 0.000 0.000 2.050 10000.000 0.000 -0.824
60 180.00 1500.00 912 2547 0.000 0.000 0.000 2.050 10000.000 0.000 -0.824
61 183.00 1500.00 926 2400 0.000 0.000 0.000 2.050 10000.000 0.000 -0.824
62 186.00 1500.00 979 2654 0.000 0.000 0.000 2.050 10000.000 0.000 -0.824
63 189.00 1500.00 964 2422 0.000 0.000 0.000 2.050 10000.000 0.000 -0.824
64 192.00 1500.00 953 2467 0.000 0.000 0.000 2.050 10000.000 0.000 -0.824
65 195.00 1500.00 945 2484 0.000 0.000 0.000 2.050 10000.000 0.000 -0.824
66 198.00 1500.00 944 2519 0.000 0.000 0.000 2.050 10000.000 0.000 -0.824
67 201.00 1500.00 931 2387 0.000 0.000 0.000 2.050 10000.000 0.000 -0.824
68 204.00 1500.00 971 2468 0.000 0.000 0.000 2.050 10000.000 0.000 -0.824
69 207.00 1500.00 919 2349 0.000 0.000 0.000 2.050 10000.000 0.000 -0.824
70 210.00 1500.00 930 2444 0.000 0.000 0.000 2.050 10000.000 0.000 -0.824
71 213.00 1500.00 943 2551 0.000 0.000 0.000 2.050 10000.000 0.000 -0.824
72 216.00 1500.00 960 2460 0.000 0.000 0.000 2.050 10000.000 0.000 -0.824
73 219.00 1500.00 917 2398 0.000 0.000 0.000 2.050 10000.000 0.000 -0.824
74 222.00 1500.00 932 2468 0.000 0.000 0.000 2.050 10000.000 0.000 -0.824
75 225.00 1500.00 915 2434 0.000 0.000 0.000 2.050 10000.000 0.000 -0.824
76 228.00 1500.00 915 2434 0.000 0.000 0.000 2.050 10000.000 0.000 -0.824
77 231.00 1500.00 948 2471 0.000 0.000 0.000 2.050 10000.000 0.000 -0.824
78 234.00 1500.00 958 2465 0.000 0.000 0.000 2.050 10000.000 0.000 -0.824
79 237.00 1500.00 987 2486 0.000 0.000 0.000 2.050 10000.000 0.000 -0.824
80 240.00 1500.00 964 2482 0.000 0.000 0.000 2.050 10000.000 0.000 -0.824
81 243.00 1500.00 925 2405 0.000 0.000 0.000 2.050 10000.000 0.000 -0.824
82 246.00 1500.00 916 2450 0.000 0.000 0.000 2.050 10000.000 0.000 -0.824
83 249.00 1500.00 930 2416 0.000 0.000 0.000 2.050 10000.000 0.000 -0.824
84 252.00 1500.00 981 2359 0.000 0.000 0.000 2.050 10000.000 0.000 -0.824
85 255.00 1500.00 860 2481 0.000 0.000 0.000 2.050 10000.000 0.000 -0.824
86 258.00 1500.00 915 2562 0.000 0.000 0.000 2.050 10000.000 0.000 -0.824
87 261.00 1500.00 958 2401 0.000 0.000 0.000 2.050 10000.000 0.000 -0.824
88 264.00 1500.00 996 2428 0.000 0.000 0.000 2.050 10000.000 0.000 -0.824
89 267.00 1500.00 966 2423 0.000 0.000 0.000 2.050 10000.000 0.000 -0.824
90 270.00 1500.00 1001 2359 0.000 0.000 0.000 2.050 10000.000 0.000 -0.824
91 273.00 1500.00 949 2431 0.000 0.000 0.000 2.050 10000.000 0.000 -0.824
92 276.00 1500.00 982 2505 0.000 0.000 0.000 2.050 10000.000 0.000 -0.824
93 279.00 1500.00 929 2404 0.000 0.000 0.000 2.050 10000.000 0.000 -0.824
94 282.00 1500.00 973 2472 0.000 0.000 0.000 2.050 10000.000 0.000 -0.824
95 285.00 1500.00 992 2501 0.000 0.000 0.000 2.050 10000.000 0.000 -0.824
96 288.00 1500.00 1003 2420 0.000 0.000 0.000 2.050 10000.000 0.000 -0.824
97 291.00 1500.00 952 2357 0.000 0.000 0.000 2.050 10000.000 0.000 -0.824
98 294.00 1500.00 981 2504 0.000 0.000 0.000 2.050 10000.000 0.000 -0.824
99 297.00 1500.00 941 2348 0.000 0.000 0.000 2.050 10000.000 0.000 -0.824
100 300.00 1500.00 948 2430 0.000 0.000 0.000 2.050 10000.000 0.000 -0.824
101 303.00 1500.00 923 2464 0.000 0.000 0.000 2.050 10000.000 0.000 -0.824
102 306.00 1500.00 1032 2437 0.000 0.000 0.000 2.050 10000.000 0.000 -0.824
103 309.00 1500.00 991 2378 0.000 0.000 0.000 2.050 10000.000 0.000 -0.824
104 312.00 1500.00 981 2493 0.000 0.000 0.000 2.050 10000.000 0.000 -0.824
105 315.00 1500.00 945 2440 0.000 0.000 0.000 2.050 10000.000 0.000 -0.824
106 318.00 1500.00 989 2582 0.000 0.000 0.000 2.050 10000.000 0.000 -0.824
107 321.00 1500.00 921 2402 0.000 0.000 0.000 2.050 10000.000 0.000 -0.824
108 324.00 1500.00 977 2559 0.000 0.000 0.000 2.050 10000.000 0.000 -0.824
109 327.00 1500.00 992 2370 0.000 0.000 0.000 2.050 10000.000 0.000 -0.824
110 330.00 1500.00 953 2446 0.000 0.000 0.000 2.050 10000.000 0.000 -0.824
111 333.00 1500.00 914 2409 0.000 0.000 0.000 2.050 10000.000 0.000 -0.824
112 336.00 1500.00 907 2458 0.000 0.000 0.000 2.050 10000.000 0.000 -0.824
113 339.00 1500.00 951 2440 0.000 0.000 0.000 2.050 10000.000 0.000 -0.824
114 342.00 1500.00 945 2454 0.000 0.000 0.000 2.050 10000.000 0.000 -0.824
115 345.00 1500.00 904 2434 0.000 0.000 0.000 2.050 10000.000 0.000 -0.824
116 348.00 1500.00 975 2528 0.000 0.000 0.000 2.050 10000.000 0.000 -0.824
117 351.00 1500.00 998 2447 0.000 0.000 0.000 2.050 10000.000 0.000 -0.824
118 354.00 1500.00 936 2575 0.000 0.000 0.000 2.050 10000.000 0.000 -0.824
119 357.00 1500.00 941 2461 0.000 0.000 0.000 2.050 10000.000 0.000 -0.824
120 360.00 1500.00 974 2437 0.000 0.000 0.000 2.050 10000.000 0.000 -0.824
121 363.00 1500.00 930 2440 0.000 0.000 0.000 2.050 10000.000 0.000 -0.824
122 366.00 1500.00 951 2433 0.000 0.000 0.000 2.050 10000.000 0.000 -0.824
123 369.00 1500.00 988 2436 0.000 0.000 0.000 2.050 10000.000 0.000 -0.824
124 372.00 1500.00 959 2645 0.000 0.000 0.000 2.050 10000.000 0.000 -0.824
125 375.00 1500.00 914 2413 0.000 0.000 0.000 2.050 10000.000 0.000 -0.824
126 378.00 1500.00 873 2419 0.000 0.000 0.000 2.050 10000.000 0.000 -0.824
127 381.00 1500.00 952 2447 0.000 0.000 0.000 2.050 10000.000 0.000 -0.824
128 384.00 1500.00 967 2533 0.000 0.000 0.000 2.050 10000.000 0.000 -0.824
129 387.00 1500.00 952 2318 0.000 0.000 0.000 2.050 10000.000 0.000 -0.824
130 390.00 1500.00 992 2492 0.000 0.000 0.000 2.050 10000.000 0.000 -0.824
131 393.00 1500.00 946 2388 0.000 0.000 0.000 2.050 10000.000 0.000 -0.824
132 396.00 1500.00 949 2575 0.000 0.000 0.000 2.050 10000.000 0.000 -0.824
133 399.00 1500.00 968 2413 0.000 0.000 0.000 2.050 10000.000 0.000 -0.824
134 402.00 1500.00 958 2452 0.000 0.000 0.000 2.050 10000.000 0.000 -0.824
