# BinNR microsec tot-time (s)  O-Beam AUX Ampl_1(V) f_1(Hz) phase_1(deg) Ampl_2(V) f_2(Hz) phase_2(deg) chi(pos)
0 0.00 3459.34 135 272 0.000 0.000 0.000 2.050 10000.000 0.000 -1.494
1 3.00 3459.34 291 551 0.000 0.000 0.000 2.050 10000.000 0.000 -1.494
2 6.00 3459.34 282 621 0.000 0.000 0.000 2.050 10000.000 0.000 -1.494
3 9.00 3459.34 297 579 0.000 0.000 0.000 2.050 10000.000 0.000 -1.494
4 12.00 3459.34 326 599 0.000 0.000 0.000 2.050 10000.000 0.000 -1.494
5 15.00 3459.34 289 577 0.000 0.000 0.000 2.050 10000.000 0.000 -1.494
6 18.00 3459.34 289 619 0.000 0.000 0.000 2.050 10000.000 0.000 -1.494
7 21.00 3459.34 279 560 0.000 0.000 0.000 2.050 10000.000 0.000 -1.494
8 24.00 3459.34 314 578 0.000 0.000 0.000 2.050 10000.000 0.000 -1.494
9 27.00 3459.34 282 580 0.000 0.000 0.000 2.050 10000.000 0.000 -1.494
10 30.00 3459.34 274 599 0.000 0.000 0.000 2.050 10000.000 0.000 -1.494
11 33.00 3459.34 285 582 0.000 0.000 0.000 2.050 10000.000 0.000 -1.494
12 36.00 3459.34 285 598 0.000 0.000 0.000 2.050 10000.000 0.000 -1.494
13 39.00 3459.34 267 571 0.000 0.000 0.000 2.050 10000.000 0.000 -1.494
14 42.00 3459.34 289 520 0.000 0.000 0.000 2.050 10000.000 0.000 -1.494
15 45.00 3459.34 266 525 0.000 0.000 0.000 2.050 10000.000 0.000 -1.494
16 48.00 3459.34 277 593 0.000 0.000 0.000 2.050 10000.000 0.000 -1.494
17 51.00 3459.34 274 560 0.000 0.000 0.000 2.050 10000.000 0.000 -1.494
18 54.00 3459.34 300 533 0.000 0.000 0.000 2.050 10000.000 0.000 -1.494
19 57.00 3459.34 291 575 0.000 0.000 0.000 2.050 10000.000 0.000 -1.494
20 60.00 3459.34 307 603 0.000 0.000 0.000 2.050 10000.000 0.000 -1.494
21 63.00 3459.34 289 570 0.000 0.000 0.000 2.050 10000.000 0.000 -1.494
22 66.00 3459.34 292 596 0.000 0.000 0.000 2.050 10000.000 0.000 -1.494
23 69.00 3459.34 325 570 0.000 0.000 0.000 2.050 10000.000 0.000 -1.494
24 72.00 3459.34 317 607 0.000 0.000 0.000 2.050 10000.000 0.000 -1.494
25 75.00 3459.34 263 603 0.000 0.000 0.000 2.050 10000.000 0.000 -1.494
26 78.00 3459.34 317 623 0.000 0.000 0.000 2.050 10000.000 0.000 -1.494
27 81.00 3459.34 316 622 0.000 0.000 0.000 2.050 10000.000 0.000 -1.494
28 84.00 3459.34 308 539 0.000 0.000 0.000 2.050 10000.000 0.000 -1.494
29 87.00 3459.34 291 527 0.000 0.000 0.000 2.050 10000.000 0.000 -1.494
30 90.00 3459.34 295 587 0.000 0.000 0.000 2.050 10000.000 0.000 -1.494
31 93.00 3459.34 322 583 0.000 0.000 0.000 2.050 10000.000 0.000 -1.494
32 96.00 3459.34 270 572 0.000 0.000 0.000 2.050 10000.000 0.000 -1.494
33 99.00 3459.34 292 554 0.000 0.000 0.000 2.050 10000.000 0.000 -1.494
34 102.00 3459.34 301 542 0.000 0.000 0.000 2.050 10000.000 0.000 -1.494
35 105.00 3459.34 305 562 0.000 0.000 0.000 2.050 10000.000 0.000 -1.494
36 108.00 3459.34 315 585 0.000 0.000 0.000 2.050 10000.000 0.000 -1.494
37 111.00 3459.34 267 579 0.000 0.000 0.000 2.050 10000.000 0.000 -1.494
38 114.00 3459.34 310 570 0.000 0.000 0.000 2.050 10000.000 0.000 -1.494
39 117.00 3459.34 318 533 0.000 0.000 0.000 2.050 10000.000 0.000 -1.494
40 120.00 3459.34 319 628 0.000 0.000 0.000 2.050 10000.000 0.000 -1.494
41 123.00 3459.34 265 618 0.000 0.000 0.000 2.050 10000.000 0.000 -1.494
42 126.00 3459.34 302 603 0.000 0.000 0.000 2.050 10000.000 0.000 -1.494
43 129.00 3459.34 289 595 0.000 0.000 0.000 2.050 10000.000 0.000 -1.494
44 132.00 3459.34 302 598 0.000 0.000 0.000 2.050 10000.000 0.000 -1.494
45 135.00 3459.34 320 599 0.000 0.000 0.000 2.050 10000.000 0.000 -1.494
46 138.00 3459.34 325 591 0.000 0.000 0.000 2.050 10000.000 0.000 -1.494
47 141.00 3459.34 320 556 0.000 0.000 0.000 2.050 10000.000 0.000 -1.494
48 144.00 3459.34 289 566 0.000 0.000 0.000 2.050 10000.000 0.000 -1.494
49 147.00 3459.34 262 574 0.000 0.000 0.000 2.050 10000.000 0.000 -1.494
50 150.00 3459.34 299 590 0.000 0.000 0.000 2.050 10000.000 0.000 -1.494
51 153.00 3459.34 329 579 0.000 0.000 0.000 2.050 10000.000 0.000 -1.494
52 156.00 3459.34 255 639 0.000 0.000 0.000 2.050 10000.000 0.000 -1.494
53 159.00 3459.34 307 579 0.000 0.000 0.000 2.050 10000.000 0.000 -1.494
54 162.00 3459.34 298 578 0.000 0.000 0.000 2.050 10000.000 0.000 -1.494
55 165.00 3459.34 294 549 0.000 0.000 0.000 2.050 10000.000 0.000 -1.494
56 168.00 3459.34 305 536 0.000 0.000 0.000 2.050 10000.000 0.000 -1.494
57 171.00 3459.34 312 575 0.000 0.000 0.000 2.050 10000.000 0.000 -1.494
58 174.00 3459.34 315 570 0.000 0.000 0.000 2.050 10000.000 0.000 -1.494
59 177.00 3459.34 299 576 0.000 0.000 0.000 2.050 10000.000 0.000 -1.494
60 180.00 3459.34 287 562 0.000 0.000 0.000 2.050 10000.000 0.000 -1.494
61 183.00 3459.34 304 582 0.000 0.000 0.000 2.050 10000.000 0.000 -1.494
62 186.00 3459.34 301 585 0.000 0.000 0.000 2.050 10000.000 0.000 -1.494
63 189.00 3459.34 292 635 0.000 0.000 0.000 2.050 10000.000 0.000 -1.494
64 192.00 3459.34 303 553 0.000 0.000 0.000 2.050 10000.000 0.000 -1.494
65 195.00 3459.34 315 608 0.000 0.000 0.000 2.050 10000.000 0.000 -1.494
66 198.00 3459.34 294 566 0.000 0.000 0.000 2.050 10000.000 0.000 -1.494
67 201.00 3459.34 289 559 0.000 0.000 0.000 2.050 10000.000 0.000 -1.494
68 204.00 3459.34 301 581 0.000 0.000 0.000 2.050 10000.000 0.000 -1.494
69 207.00 3459.34 274 553 0.000 0.000 0.000 2.050 10000.000 0.000 -1.494
70 210.00 3459.34 278 607 0.000 0.000 0.000 2.050 10000.000 0.000 -1.494
71 213.00 3459.34 310 612 0.000 0.000 0.000 2.050 10000.000 0.000 -1.494
72 216.00 3459.34 321 569 0.000 0.000 0.000 2.050 10000.000 0.000 -1.494
73 219.00 3459.34 280 556 0.000 0.000 0.000 2.050 10000.000 0.000 -1.494
74 222.00 3459.34 317 598 0.000 0.000 0.000 2.050 10000.000 0.000 -1.494
75 225.00 3459.34 313 591 0.000 0.000 0.000 2.050 10000.000 0.000 -1.494
76 228.00 3459.34 324 589 0.000 0.000 0.000 2.050 10000.000 0.000 -1.494
77 231.00 3459.34 308 572 0.000 0.000 0.000 2.050 10000.000 0.000 -1.494
78 234.00 3459.34 315 619 0.000 0.000 0.000 2.050 10000.000 0.000 -1.494
79 237.00 3459.34 295 572 0.000 0.000 0.000 2.050 10000.000 0.000 -1.494
80 240.00 3459.34 311 582 0.000 0.000 0.000 2.050 10000.000 0.000 -1.494
81 243.00 3459.34 301 542 0.000 0.000 0.000 2.050 10000.000 0.000 -1.494
82 246.00 3459.34 283 597 0.000 0.000 0.000 2.050 10000.000 0.000 -1.494
83 249.00 3459.34 326 558 0.000 0.000 0.000 2.050 10000.000 0.000 -1.494
84 252.00 3459.34 289 596 0.000 0.000 0.000 2.050 10000.000 0.000 -1.494
85 255.00 3459.34 288 597 0.000 0.000 0.000 2.050 10000.000 0.000 -1.494
86 258.00 3459.34 319 585 0.000 0.000 0.000 2.050 10000.000 0.000 -1.494
87 261.00 3459.34 303 568 0.000 0.000 0.000 2.050 10000.000 0.000 -1.494
88 264.00 3459.34 307 594 0.000 0.000 0.000 2.050 10000.000 0.000 -1.494
89 267.00 3459.34 297 594 0.000 0.000 0.000 2.050 10000.000 0.000 -1.494
90 270.00 3459.34 290 552 0.000 0.000 0.000 2.050 10000.000 0.000 -1.494
91 273.00 3459.34 263 614 0.000 0.000 0.000 2.050 10000.000 0.000 -1.494
92 276.00 3459.34 271 595 0.000 0.000 0.000 2.050 10000.000 0.000 -1.494
93 279.00 3459.34 289 533 0.000 0.000 0.000 2.050 10000.000 0.000 -1.494
94 282.00 3459.34 319 601 0.000 0.000 0.000 2.050 10000.000 0.000 -1.494
95 285.00 3459.34 290 603 0.000 0.000 0.000 2.050 10000.000 0.000 -1.494
96 288.00 3459.34 316 629 0.000 0.000 0.000 2.050 10000.000 0.000 -1.494
97 291.00 3459.34 290 604 0.000 0.000 0.000 2.050 10000.000 0.000 -1.494
98 294.00 3459.34 311 553 0.000 0.000 0.000 2.050 10000.000 0.000 -1.494
99 297.00 3459.34 288 581 0.000 0.000 0.000 2.050 10000.000 0.000 -1.494
100 300.00 3459.34 314 585 0.000 0.000 0.000 2.050 10000.000 0.000 -1.494
101 303.00 3459.34 310 539 0.000 0.000 0.000 2.050 10000.000 0.000 -1.494
102 306.00 3459.34 317 569 0.000 0.000 0.000 2.050 10000.000 0.000 -1.494
103 309.00 3459.34 307 568 0.000 0.000 0.000 2.050 10000.000 0.000 -1.494
104 312.00 3459.34 303 577 0.000 0.000 0.000 2.050 10000.000 0.000 -1.494
105 315.00 3459.34 301 596 0.000 0.000 0.000 2.050 10000.000 0.000 -1.494
106 318.00 3459.34 301 560 0.000 0.000 0.000 2.050 10000.000 0.000 -1.494
107 321.00 3459.34 240 533 0.000 0.000 0.000 2.050 10000.000 0.000 -1.494
108 324.00 3459.34 291 596 0.000 0.000 0.000 2.050 10000.000 0.000 -1.494
109 327.00 3459.34 308 539 0.000 0.000 0.000 2.050 10000.000 0.000 -1.494
110 330.00 3459.34 302 576 0.000 0.000 0.000 2.050 10000.000 0.000 -1.494
111 333.00 3459.34 289 591 0.000 0.000 0.000 2.050 10000.000 0.000 -1.494
112 336.00 3459.34 287 545 0.000 0.000 0.000 2.050 10000.000 0.000 -1.494
113 339.00 3459.34 290 548 0.000 0.000 0.000 2.050 10000.000 0.000 -1.494
114 342.00 3459.34 302 623 0.000 0.000 0.000 2.050 10000.000 0.000 -1.494
115 345.00 3459.34 279 594 0.000 0.000 0.000 2.050 10000.000 0.000 -1.494
116 348.00 3459.34 308 605 0.000 0.000 0.000 2.050 10000.000 0.000 -1.494
117 351.00 3459.34 293 581 0.000 0.000 0.000 2.050 10000.000 0.000 -1.494
118 354.00 3459.34 306 601 0.000 0.000 0.000 2.050 10000.000 0.000 -1.494
119 357.00 3459.34 284 582 0.000 0.000 0.000 2.050 10000.000 0.000 -1.494
120 360.00 3459.34 293 606 0.000 0.000 0.000 2.050 10000.000 0.000 -1.494
121 363.00 3459.34 284 559 0.000 0.000 0.000 2.050 10000.000 0.000 -1.494
122 366.00 3459.34 293 556 0.000 0.000 0.000 2.050 10000.000 0.000 -1.494
123 369.00 3459.34 296 558 0.000 0.000 0.000 2.050 10000.000 0.000 -1.494
124 372.00 3459.34 295 584 0.000 0.000 0.000 2.050 10000.000 0.000 -1.494
125 375.00 3459.34 264 542 0.000 0.000 0.000 2.050 10000.000 0.000 -1.494
126 378.00 3459.34 319 616 0.000 0.000 0.000 2.050 10000.000 0.000 -1.494
127 381.00 3459.34 302 585 0.000 0.000 0.000 2.050 10000.000 0.000 -1.494
128 384.00 3459.34 319 593 0.000 0.000 0.000 2.050 10000.000 0.000 -1.494
129 387.00 3459.34 322 535 0.000 0.000 0.000 2.050 10000.000 0.000 -1.494
130 390.00 3459.34 315 621 0.000 0.000 0.000 2.050 10000.000 0.000 -1.494
131 393.00 3459.34 314 588 0.000 0.000 0.000 2.050 10000.000 0.000 -1.494
132 396.00 3459.34 300 649 0.000 0.000 0.000 2.050 10000.000 0.000 -1.494
133 399.00 3459.34 311 623 0.000 0.000 0.000 2.050 10000.000 0.000 -1.494
134 402.00 3459.34 287 567 0.000 0.000 0.000 2.050 10000.000 0.000 -1.494
