# BinNR microsec tot-time (s)  O-Beam H-beam AUX Ampl(V) f(Hz) phase(deg) chi(pos)
0 0.00 900.00 338 389 0 0.000 5.373 2000.000 -0.648
1 25.00 900.00 310 427 4 0.000 5.373 2000.000 -0.648
2 50.00 900.00 328 395 0 0.000 5.373 2000.000 -0.648
3 75.00 900.00 332 413 4 0.000 5.373 2000.000 -0.648
4 100.00 900.00 297 430 2 0.000 5.373 2000.000 -0.648
5 125.00 900.00 323 409 1 0.000 5.373 2000.000 -0.648
6 150.00 900.00 339 412 1 0.000 5.373 2000.000 -0.648
7 175.00 900.00 345 433 0 0.000 5.373 2000.000 -0.648
8 200.00 900.00 328 450 2 0.000 5.373 2000.000 -0.648
9 225.00 900.00 307 468 2 0.000 5.373 2000.000 -0.648
10 250.00 900.00 306 438 2 0.000 5.373 2000.000 -0.648
11 275.00 900.00 330 422 2 0.000 5.373 2000.000 -0.648
12 300.00 900.00 328 411 4 0.000 5.373 2000.000 -0.648
13 325.00 900.00 311 413 1 0.000 5.373 2000.000 -0.648
14 350.00 900.00 285 401 0 0.000 5.373 2000.000 -0.648
15 375.00 900.00 319 400 0 0.000 5.373 2000.000 -0.648
16 400.00 900.00 331 467 0 0.000 5.373 2000.000 -0.648
17 425.00 900.00 338 438 4 0.000 5.373 2000.000 -0.648
18 450.00 900.00 357 447 2 0.000 5.373 2000.000 -0.648
19 475.00 900.00 311 409 2 0.000 5.373 2000.000 -0.648
20 500.00 900.00 312 418 2 0.000 5.373 2000.000 -0.648
21 525.00 900.00 324 381 4 0.000 5.373 2000.000 -0.648
22 550.00 900.00 311 419 0 0.000 5.373 2000.000 -0.648
23 575.00 900.00 338 427 1 0.000 5.373 2000.000 -0.648
24 600.00 900.00 290 462 0 0.000 5.373 2000.000 -0.648
25 625.00 900.00 336 453 0 0.000 5.373 2000.000 -0.648
26 650.00 900.00 338 452 3 0.000 5.373 2000.000 -0.648
27 675.00 900.00 364 438 2 0.000 5.373 2000.000 -0.648
28 700.00 900.00 358 439 4 0.000 5.373 2000.000 -0.648
29 725.00 900.00 299 471 3 0.000 5.373 2000.000 -0.648
30 750.00 900.00 300 448 2 0.000 5.373 2000.000 -0.648
31 775.00 900.00 298 433 1 0.000 5.373 2000.000 -0.648
32 800.00 900.00 330 438 1 0.000 5.373 2000.000 -0.648
33 825.00 900.00 312 437 3 0.000 5.373 2000.000 -0.648
34 850.00 900.00 313 437 5 0.000 5.373 2000.000 -0.648
35 875.00 900.00 327 410 3 0.000 5.373 2000.000 -0.648
36 900.00 900.00 314 432 1 0.000 5.373 2000.000 -0.648
37 925.00 900.00 328 419 1 0.000 5.373 2000.000 -0.648
38 950.00 900.00 317 429 3 0.000 5.373 2000.000 -0.648
39 975.00 900.00 355 445 1 0.000 5.373 2000.000 -0.648
