# BinNR microsec tot-time (s)  O-Beam H-beam AUX Ampl(V) f(Hz) phase(deg) chi(pos)
0 0.00 900.00 344 452 2 0.000 5.373 2000.000 1.505
1 25.00 900.00 338 434 2 0.000 5.373 2000.000 1.505
2 50.00 900.00 361 452 1 0.000 5.373 2000.000 1.505
3 75.00 900.00 292 418 5 0.000 5.373 2000.000 1.505
4 100.00 900.00 355 441 3 0.000 5.373 2000.000 1.505
5 125.00 900.00 349 438 2 0.000 5.373 2000.000 1.505
6 150.00 900.00 353 424 2 0.000 5.373 2000.000 1.505
7 175.00 900.00 317 439 4 0.000 5.373 2000.000 1.505
8 200.00 900.00 315 389 3 0.000 5.373 2000.000 1.505
9 225.00 900.00 346 401 3 0.000 5.373 2000.000 1.505
10 250.00 900.00 360 446 2 0.000 5.373 2000.000 1.505
11 275.00 900.00 363 449 2 0.000 5.373 2000.000 1.505
12 300.00 900.00 370 435 2 0.000 5.373 2000.000 1.505
13 325.00 900.00 388 458 5 0.000 5.373 2000.000 1.505
14 350.00 900.00 376 450 2 0.000 5.373 2000.000 1.505
15 375.00 900.00 346 444 1 0.000 5.373 2000.000 1.505
16 400.00 900.00 356 421 1 0.000 5.373 2000.000 1.505
17 425.00 900.00 325 434 1 0.000 5.373 2000.000 1.505
18 450.00 900.00 332 433 2 0.000 5.373 2000.000 1.505
19 475.00 900.00 333 433 2 0.000 5.373 2000.000 1.505
20 500.00 900.00 336 449 2 0.000 5.373 2000.000 1.505
21 525.00 900.00 369 449 3 0.000 5.373 2000.000 1.505
22 550.00 900.00 333 402 2 0.000 5.373 2000.000 1.505
23 575.00 900.00 326 437 2 0.000 5.373 2000.000 1.505
24 600.00 900.00 340 452 1 0.000 5.373 2000.000 1.505
25 625.00 900.00 315 425 4 0.000 5.373 2000.000 1.505
26 650.00 900.00 333 433 4 0.000 5.373 2000.000 1.505
27 675.00 900.00 336 433 1 0.000 5.373 2000.000 1.505
28 700.00 900.00 347 364 0 0.000 5.373 2000.000 1.505
29 725.00 900.00 358 406 0 0.000 5.373 2000.000 1.505
30 750.00 900.00 336 433 1 0.000 5.373 2000.000 1.505
31 775.00 900.00 358 434 1 0.000 5.373 2000.000 1.505
32 800.00 900.00 380 469 2 0.000 5.373 2000.000 1.505
33 825.00 900.00 351 438 3 0.000 5.373 2000.000 1.505
34 850.00 900.00 333 448 4 0.000 5.373 2000.000 1.505
35 875.00 900.00 330 435 1 0.000 5.373 2000.000 1.505
36 900.00 900.00 322 388 2 0.000 5.373 2000.000 1.505
37 925.00 900.00 334 402 4 0.000 5.373 2000.000 1.505
38 950.00 900.00 376 429 2 0.000 5.373 2000.000 1.505
39 975.00 900.00 336 412 1 0.000 5.373 2000.000 1.505
