# BinNR microsec tot-time (s)  O-Beam AUX Ampl(V) f(Hz) phase(deg) chi(pos)
0 0.00 1200.00 54 75 2.000 10000.000 0.000 -0.099
1 3.00 1200.00 90 150 2.000 10000.000 0.000 -0.099
2 6.00 1200.00 88 154 2.000 10000.000 0.000 -0.099
3 9.00 1200.00 87 132 2.000 10000.000 0.000 -0.099
4 12.00 1200.00 88 133 2.000 10000.000 0.000 -0.099
5 15.00 1200.00 96 128 2.000 10000.000 0.000 -0.099
6 18.00 1200.00 89 131 2.000 10000.000 0.000 -0.099
7 21.00 1200.00 83 150 2.000 10000.000 0.000 -0.099
8 24.00 1200.00 88 155 2.000 10000.000 0.000 -0.099
9 27.00 1200.00 100 127 2.000 10000.000 0.000 -0.099
10 30.00 1200.00 105 137 2.000 10000.000 0.000 -0.099
11 33.00 1200.00 90 149 2.000 10000.000 0.000 -0.099
12 36.00 1200.00 87 151 2.000 10000.000 0.000 -0.099
13 39.00 1200.00 95 148 2.000 10000.000 0.000 -0.099
14 42.00 1200.00 86 115 2.000 10000.000 0.000 -0.099
15 45.00 1200.00 94 146 2.000 10000.000 0.000 -0.099
16 48.00 1200.00 88 131 2.000 10000.000 0.000 -0.099
17 51.00 1200.00 103 140 2.000 10000.000 0.000 -0.099
18 54.00 1200.00 82 146 2.000 10000.000 0.000 -0.099
19 57.00 1200.00 94 134 2.000 10000.000 0.000 -0.099
20 60.00 1200.00 92 138 2.000 10000.000 0.000 -0.099
21 63.00 1200.00 96 162 2.000 10000.000 0.000 -0.099
22 66.00 1200.00 104 132 2.000 10000.000 0.000 -0.099
23 69.00 1200.00 97 129 2.000 10000.000 0.000 -0.099
24 72.00 1200.00 97 153 2.000 10000.000 0.000 -0.099
25 75.00 1200.00 99 132 2.000 10000.000 0.000 -0.099
26 78.00 1200.00 97 146 2.000 10000.000 0.000 -0.099
27 81.00 1200.00 64 149 2.000 10000.000 0.000 -0.099
28 84.00 1200.00 94 145 2.000 10000.000 0.000 -0.099
29 87.00 1200.00 84 132 2.000 10000.000 0.000 -0.099
30 90.00 1200.00 91 129 2.000 10000.000 0.000 -0.099
31 93.00 1200.00 86 128 2.000 10000.000 0.000 -0.099
32 96.00 1200.00 103 153 2.000 10000.000 0.000 -0.099
33 99.00 1200.00 108 153 2.000 10000.000 0.000 -0.099
34 102.00 1200.00 100 139 2.000 10000.000 0.000 -0.099
35 105.00 1200.00 98 140 2.000 10000.000 0.000 -0.099
36 108.00 1200.00 90 131 2.000 10000.000 0.000 -0.099
37 111.00 1200.00 108 149 2.000 10000.000 0.000 -0.099
38 114.00 1200.00 90 142 2.000 10000.000 0.000 -0.099
39 117.00 1200.00 71 155 2.000 10000.000 0.000 -0.099
40 120.00 1200.00 93 130 2.000 10000.000 0.000 -0.099
41 123.00 1200.00 94 117 2.000 10000.000 0.000 -0.099
42 126.00 1200.00 99 137 2.000 10000.000 0.000 -0.099
43 129.00 1200.00 88 132 2.000 10000.000 0.000 -0.099
44 132.00 1200.00 114 154 2.000 10000.000 0.000 -0.099
45 135.00 1200.00 81 141 2.000 10000.000 0.000 -0.099
46 138.00 1200.00 107 136 2.000 10000.000 0.000 -0.099
47 141.00 1200.00 86 130 2.000 10000.000 0.000 -0.099
48 144.00 1200.00 108 144 2.000 10000.000 0.000 -0.099
49 147.00 1200.00 115 138 2.000 10000.000 0.000 -0.099
50 150.00 1200.00 101 130 2.000 10000.000 0.000 -0.099
51 153.00 1200.00 104 155 2.000 10000.000 0.000 -0.099
52 156.00 1200.00 80 174 2.000 10000.000 0.000 -0.099
53 159.00 1200.00 106 135 2.000 10000.000 0.000 -0.099
54 162.00 1200.00 100 161 2.000 10000.000 0.000 -0.099
55 165.00 1200.00 102 120 2.000 10000.000 0.000 -0.099
56 168.00 1200.00 106 166 2.000 10000.000 0.000 -0.099
57 171.00 1200.00 103 131 2.000 10000.000 0.000 -0.099
58 174.00 1200.00 93 138 2.000 10000.000 0.000 -0.099
59 177.00 1200.00 88 136 2.000 10000.000 0.000 -0.099
60 180.00 1200.00 109 156 2.000 10000.000 0.000 -0.099
61 183.00 1200.00 96 148 2.000 10000.000 0.000 -0.099
62 186.00 1200.00 104 152 2.000 10000.000 0.000 -0.099
63 189.00 1200.00 93 129 2.000 10000.000 0.000 -0.099
64 192.00 1200.00 81 128 2.000 10000.000 0.000 -0.099
65 195.00 1200.00 100 138 2.000 10000.000 0.000 -0.099
66 198.00 1200.00 103 149 2.000 10000.000 0.000 -0.099
67 201.00 1200.00 96 134 2.000 10000.000 0.000 -0.099
68 204.00 1200.00 79 134 2.000 10000.000 0.000 -0.099
69 207.00 1200.00 106 132 2.000 10000.000 0.000 -0.099
70 210.00 1200.00 90 160 2.000 10000.000 0.000 -0.099
71 213.00 1200.00 92 117 2.000 10000.000 0.000 -0.099
72 216.00 1200.00 98 148 2.000 10000.000 0.000 -0.099
73 219.00 1200.00 86 140 2.000 10000.000 0.000 -0.099
74 222.00 1200.00 93 139 2.000 10000.000 0.000 -0.099
75 225.00 1200.00 100 130 2.000 10000.000 0.000 -0.099
76 228.00 1200.00 85 151 2.000 10000.000 0.000 -0.099
77 231.00 1200.00 83 137 2.000 10000.000 0.000 -0.099
78 234.00 1200.00 105 129 2.000 10000.000 0.000 -0.099
79 237.00 1200.00 78 156 2.000 10000.000 0.000 -0.099
80 240.00 1200.00 102 131 2.000 10000.000 0.000 -0.099
81 243.00 1200.00 100 119 2.000 10000.000 0.000 -0.099
82 246.00 1200.00 82 124 2.000 10000.000 0.000 -0.099
83 249.00 1200.00 99 115 2.000 10000.000 0.000 -0.099
84 252.00 1200.00 92 157 2.000 10000.000 0.000 -0.099
85 255.00 1200.00 102 149 2.000 10000.000 0.000 -0.099
86 258.00 1200.00 110 128 2.000 10000.000 0.000 -0.099
87 261.00 1200.00 100 134 2.000 10000.000 0.000 -0.099
88 264.00 1200.00 90 139 2.000 10000.000 0.000 -0.099
89 267.00 1200.00 94 132 2.000 10000.000 0.000 -0.099
90 270.00 1200.00 89 145 2.000 10000.000 0.000 -0.099
91 273.00 1200.00 100 126 2.000 10000.000 0.000 -0.099
92 276.00 1200.00 100 146 2.000 10000.000 0.000 -0.099
93 279.00 1200.00 73 152 2.000 10000.000 0.000 -0.099
94 282.00 1200.00 88 114 2.000 10000.000 0.000 -0.099
95 285.00 1200.00 105 143 2.000 10000.000 0.000 -0.099
96 288.00 1200.00 77 152 2.000 10000.000 0.000 -0.099
97 291.00 1200.00 106 143 2.000 10000.000 0.000 -0.099
98 294.00 1200.00 93 145 2.000 10000.000 0.000 -0.099
99 297.00 1200.00 107 154 2.000 10000.000 0.000 -0.099
100 300.00 1200.00 104 153 2.000 10000.000 0.000 -0.099
101 303.00 1200.00 74 112 2.000 10000.000 0.000 -0.099
