# BinNR microsec tot-time (s)  O-Beam AUX Ampl(V) f(Hz) phase(deg) chi(pos)
0 0.00 1200.01 41 54 2.000 10000.000 0.000 0.088
1 3.00 1200.01 71 97 2.000 10000.000 0.000 0.088
2 6.00 1200.01 62 98 2.000 10000.000 0.000 0.088
3 9.00 1200.01 75 99 2.000 10000.000 0.000 0.088
4 12.00 1200.01 70 93 2.000 10000.000 0.000 0.088
5 15.00 1200.01 63 112 2.000 10000.000 0.000 0.088
6 18.00 1200.01 77 93 2.000 10000.000 0.000 0.088
7 21.00 1200.01 77 92 2.000 10000.000 0.000 0.088
8 24.00 1200.01 62 96 2.000 10000.000 0.000 0.088
9 27.00 1200.01 82 95 2.000 10000.000 0.000 0.088
10 30.00 1200.01 56 102 2.000 10000.000 0.000 0.088
11 33.00 1200.01 85 106 2.000 10000.000 0.000 0.088
12 36.00 1200.01 68 85 2.000 10000.000 0.000 0.088
13 39.00 1200.01 68 89 2.000 10000.000 0.000 0.088
14 42.00 1200.01 96 90 2.000 10000.000 0.000 0.088
15 45.00 1200.01 68 91 2.000 10000.000 0.000 0.088
16 48.00 1200.01 85 95 2.000 10000.000 0.000 0.088
17 51.00 1200.01 76 88 2.000 10000.000 0.000 0.088
18 54.00 1200.01 70 114 2.000 10000.000 0.000 0.088
19 57.00 1200.01 49 104 2.000 10000.000 0.000 0.088
20 60.00 1200.01 75 100 2.000 10000.000 0.000 0.088
21 63.00 1200.01 70 105 2.000 10000.000 0.000 0.088
22 66.00 1200.01 79 96 2.000 10000.000 0.000 0.088
23 69.00 1200.01 85 100 2.000 10000.000 0.000 0.088
24 72.00 1200.01 86 85 2.000 10000.000 0.000 0.088
25 75.00 1200.01 76 102 2.000 10000.000 0.000 0.088
26 78.00 1200.01 84 86 2.000 10000.000 0.000 0.088
27 81.00 1200.01 85 100 2.000 10000.000 0.000 0.088
28 84.00 1200.01 84 107 2.000 10000.000 0.000 0.088
29 87.00 1200.01 78 89 2.000 10000.000 0.000 0.088
30 90.00 1200.01 85 115 2.000 10000.000 0.000 0.088
31 93.00 1200.01 76 96 2.000 10000.000 0.000 0.088
32 96.00 1200.01 70 84 2.000 10000.000 0.000 0.088
33 99.00 1200.01 70 86 2.000 10000.000 0.000 0.088
34 102.00 1200.01 76 95 2.000 10000.000 0.000 0.088
35 105.00 1200.01 77 91 2.000 10000.000 0.000 0.088
36 108.00 1200.01 81 87 2.000 10000.000 0.000 0.088
37 111.00 1200.01 76 98 2.000 10000.000 0.000 0.088
38 114.00 1200.01 80 125 2.000 10000.000 0.000 0.088
39 117.00 1200.01 89 88 2.000 10000.000 0.000 0.088
40 120.00 1200.01 65 109 2.000 10000.000 0.000 0.088
41 123.00 1200.01 65 121 2.000 10000.000 0.000 0.088
42 126.00 1200.01 71 112 2.000 10000.000 0.000 0.088
43 129.00 1200.01 81 94 2.000 10000.000 0.000 0.088
44 132.00 1200.01 73 90 2.000 10000.000 0.000 0.088
45 135.00 1200.01 79 89 2.000 10000.000 0.000 0.088
46 138.00 1200.01 73 110 2.000 10000.000 0.000 0.088
47 141.00 1200.01 81 101 2.000 10000.000 0.000 0.088
48 144.00 1200.01 70 120 2.000 10000.000 0.000 0.088
49 147.00 1200.01 72 95 2.000 10000.000 0.000 0.088
50 150.00 1200.01 82 107 2.000 10000.000 0.000 0.088
51 153.00 1200.01 92 102 2.000 10000.000 0.000 0.088
52 156.00 1200.01 61 121 2.000 10000.000 0.000 0.088
53 159.00 1200.01 64 115 2.000 10000.000 0.000 0.088
54 162.00 1200.01 74 101 2.000 10000.000 0.000 0.088
55 165.00 1200.01 80 100 2.000 10000.000 0.000 0.088
56 168.00 1200.01 74 111 2.000 10000.000 0.000 0.088
57 171.00 1200.01 65 99 2.000 10000.000 0.000 0.088
58 174.00 1200.01 76 113 2.000 10000.000 0.000 0.088
59 177.00 1200.01 68 97 2.000 10000.000 0.000 0.088
60 180.00 1200.01 65 118 2.000 10000.000 0.000 0.088
61 183.00 1200.01 77 110 2.000 10000.000 0.000 0.088
62 186.00 1200.01 65 107 2.000 10000.000 0.000 0.088
63 189.00 1200.01 100 86 2.000 10000.000 0.000 0.088
64 192.00 1200.01 60 98 2.000 10000.000 0.000 0.088
65 195.00 1200.01 82 97 2.000 10000.000 0.000 0.088
66 198.00 1200.01 74 108 2.000 10000.000 0.000 0.088
67 201.00 1200.01 74 100 2.000 10000.000 0.000 0.088
68 204.00 1200.01 66 96 2.000 10000.000 0.000 0.088
69 207.00 1200.01 62 116 2.000 10000.000 0.000 0.088
70 210.00 1200.01 76 93 2.000 10000.000 0.000 0.088
71 213.00 1200.01 86 94 2.000 10000.000 0.000 0.088
72 216.00 1200.01 70 102 2.000 10000.000 0.000 0.088
73 219.00 1200.01 79 98 2.000 10000.000 0.000 0.088
74 222.00 1200.01 77 102 2.000 10000.000 0.000 0.088
75 225.00 1200.01 89 88 2.000 10000.000 0.000 0.088
76 228.00 1200.01 79 111 2.000 10000.000 0.000 0.088
77 231.00 1200.01 77 110 2.000 10000.000 0.000 0.088
78 234.00 1200.01 61 109 2.000 10000.000 0.000 0.088
79 237.00 1200.01 67 86 2.000 10000.000 0.000 0.088
80 240.00 1200.01 73 105 2.000 10000.000 0.000 0.088
81 243.00 1200.01 81 100 2.000 10000.000 0.000 0.088
82 246.00 1200.01 77 103 2.000 10000.000 0.000 0.088
83 249.00 1200.01 89 101 2.000 10000.000 0.000 0.088
84 252.00 1200.01 79 114 2.000 10000.000 0.000 0.088
85 255.00 1200.01 51 87 2.000 10000.000 0.000 0.088
86 258.00 1200.01 77 83 2.000 10000.000 0.000 0.088
87 261.00 1200.01 67 85 2.000 10000.000 0.000 0.088
88 264.00 1200.01 68 97 2.000 10000.000 0.000 0.088
89 267.00 1200.01 72 100 2.000 10000.000 0.000 0.088
90 270.00 1200.01 70 89 2.000 10000.000 0.000 0.088
91 273.00 1200.01 66 88 2.000 10000.000 0.000 0.088
92 276.00 1200.01 71 99 2.000 10000.000 0.000 0.088
93 279.00 1200.01 63 95 2.000 10000.000 0.000 0.088
94 282.00 1200.01 81 85 2.000 10000.000 0.000 0.088
95 285.00 1200.01 93 98 2.000 10000.000 0.000 0.088
96 288.00 1200.01 57 106 2.000 10000.000 0.000 0.088
97 291.00 1200.01 79 76 2.000 10000.000 0.000 0.088
98 294.00 1200.01 82 105 2.000 10000.000 0.000 0.088
99 297.00 1200.01 65 100 2.000 10000.000 0.000 0.088
100 300.00 1200.01 90 100 2.000 10000.000 0.000 0.088
101 303.00 1200.01 60 102 2.000 10000.000 0.000 0.088
