# BinNR microsec tot-time (s)  O-Beam H-beam AUX Ampl(V) f(Hz) phase(deg) chi(pos)
0 0.00 1200.00 288 887 7 5.313 2000.000 0.000 0.923
1 25.00 1200.00 331 1003 5 5.313 2000.000 0.000 0.923
2 50.00 1200.00 415 1017 3 5.313 2000.000 0.000 0.923
3 75.00 1200.00 359 958 4 5.313 2000.000 0.000 0.923
4 100.00 1200.00 322 788 4 5.313 2000.000 0.000 0.923
5 125.00 1200.00 209 615 2 5.313 2000.000 0.000 0.923
6 150.00 1200.00 121 569 5 5.313 2000.000 0.000 0.923
7 175.00 1200.00 139 552 5 5.313 2000.000 0.000 0.923
8 200.00 1200.00 286 532 1 5.313 2000.000 0.000 0.923
9 225.00 1200.00 448 537 7 5.313 2000.000 0.000 0.923
10 250.00 1200.00 596 663 6 5.313 2000.000 0.000 0.923
11 275.00 1200.00 601 805 2 5.313 2000.000 0.000 0.923
12 300.00 1200.00 632 953 6 5.313 2000.000 0.000 0.923
13 325.00 1200.00 667 1054 1 5.313 2000.000 0.000 0.923
14 350.00 1200.00 570 1033 3 5.313 2000.000 0.000 0.923
15 375.00 1200.00 477 893 3 5.313 2000.000 0.000 0.923
16 400.00 1200.00 310 823 2 5.313 2000.000 0.000 0.923
17 425.00 1200.00 165 738 4 5.313 2000.000 0.000 0.923
18 450.00 1200.00 146 730 8 5.313 2000.000 0.000 0.923
19 475.00 1200.00 181 856 4 5.313 2000.000 0.000 0.923
20 500.00 1200.00 328 866 6 5.313 2000.000 0.000 0.923
21 525.00 1200.00 390 1024 6 5.313 2000.000 0.000 0.923
22 550.00 1200.00 437 1069 2 5.313 2000.000 0.000 0.923
23 575.00 1200.00 401 951 6 5.313 2000.000 0.000 0.923
24 600.00 1200.00 311 752 4 5.313 2000.000 0.000 0.923
25 625.00 1200.00 197 662 2 5.313 2000.000 0.000 0.923
26 650.00 1200.00 152 531 4 5.313 2000.000 0.000 0.923
27 675.00 1200.00 159 533 7 5.313 2000.000 0.000 0.923
28 700.00 1200.00 286 538 4 5.313 2000.000 0.000 0.923
29 725.00 1200.00 430 567 4 5.313 2000.000 0.000 0.923
30 750.00 1200.00 563 667 4 5.313 2000.000 0.000 0.923
31 775.00 1200.00 609 736 1 5.313 2000.000 0.000 0.923
32 800.00 1200.00 611 966 6 5.313 2000.000 0.000 0.923
33 825.00 1200.00 600 1062 5 5.313 2000.000 0.000 0.923
34 850.00 1200.00 591 1024 10 5.313 2000.000 0.000 0.923
35 875.00 1200.00 479 927 5 5.313 2000.000 0.000 0.923
36 900.00 1200.00 309 800 11 5.313 2000.000 0.000 0.923
37 925.00 1200.00 171 747 5 5.313 2000.000 0.000 0.923
38 950.00 1200.00 145 692 6 5.313 2000.000 0.000 0.923
39 975.00 1200.00 196 812 2 5.313 2000.000 0.000 0.923
