# BinNR microsec tot-time (s)  O-Beam AUX Ampl(V) f(Hz) phase(deg) chi(pos)
0 0.00 1200.00 114 321 1.000 10000.000 0.000 1.077
1 3.00 1200.00 240 675 1.000 10000.000 0.000 1.077
2 6.00 1200.00 242 685 1.000 10000.000 0.000 1.077
3 9.00 1200.00 244 736 1.000 10000.000 0.000 1.077
4 12.00 1200.00 256 726 1.000 10000.000 0.000 1.077
5 15.00 1200.00 233 784 1.000 10000.000 0.000 1.077
6 18.00 1200.00 249 750 1.000 10000.000 0.000 1.077
7 21.00 1200.00 259 737 1.000 10000.000 0.000 1.077
8 24.00 1200.00 252 745 1.000 10000.000 0.000 1.077
9 27.00 1200.00 276 686 1.000 10000.000 0.000 1.077
10 30.00 1200.00 258 634 1.000 10000.000 0.000 1.077
11 33.00 1200.00 227 612 1.000 10000.000 0.000 1.077
12 36.00 1200.00 227 628 1.000 10000.000 0.000 1.077
13 39.00 1200.00 214 623 1.000 10000.000 0.000 1.077
14 42.00 1200.00 212 575 1.000 10000.000 0.000 1.077
15 45.00 1200.00 231 483 1.000 10000.000 0.000 1.077
16 48.00 1200.00 200 507 1.000 10000.000 0.000 1.077
17 51.00 1200.00 192 463 1.000 10000.000 0.000 1.077
18 54.00 1200.00 172 448 1.000 10000.000 0.000 1.077
19 57.00 1200.00 162 406 1.000 10000.000 0.000 1.077
20 60.00 1200.00 151 401 1.000 10000.000 0.000 1.077
21 63.00 1200.00 184 370 1.000 10000.000 0.000 1.077
22 66.00 1200.00 176 387 1.000 10000.000 0.000 1.077
23 69.00 1200.00 147 370 1.000 10000.000 0.000 1.077
24 72.00 1200.00 166 332 1.000 10000.000 0.000 1.077
25 75.00 1200.00 186 452 1.000 10000.000 0.000 1.077
26 78.00 1200.00 173 371 1.000 10000.000 0.000 1.077
27 81.00 1200.00 188 425 1.000 10000.000 0.000 1.077
28 84.00 1200.00 166 439 1.000 10000.000 0.000 1.077
29 87.00 1200.00 159 436 1.000 10000.000 0.000 1.077
30 90.00 1200.00 194 491 1.000 10000.000 0.000 1.077
31 93.00 1200.00 205 509 1.000 10000.000 0.000 1.077
32 96.00 1200.00 224 576 1.000 10000.000 0.000 1.077
33 99.00 1200.00 206 647 1.000 10000.000 0.000 1.077
34 102.00 1200.00 222 683 1.000 10000.000 0.000 1.077
35 105.00 1200.00 215 657 1.000 10000.000 0.000 1.077
36 108.00 1200.00 241 702 1.000 10000.000 0.000 1.077
37 111.00 1200.00 228 705 1.000 10000.000 0.000 1.077
38 114.00 1200.00 269 783 1.000 10000.000 0.000 1.077
39 117.00 1200.00 253 729 1.000 10000.000 0.000 1.077
40 120.00 1200.00 276 803 1.000 10000.000 0.000 1.077
41 123.00 1200.00 264 714 1.000 10000.000 0.000 1.077
42 126.00 1200.00 221 706 1.000 10000.000 0.000 1.077
43 129.00 1200.00 241 716 1.000 10000.000 0.000 1.077
44 132.00 1200.00 252 678 1.000 10000.000 0.000 1.077
45 135.00 1200.00 220 665 1.000 10000.000 0.000 1.077
46 138.00 1200.00 225 594 1.000 10000.000 0.000 1.077
47 141.00 1200.00 211 584 1.000 10000.000 0.000 1.077
48 144.00 1200.00 206 511 1.000 10000.000 0.000 1.077
49 147.00 1200.00 207 492 1.000 10000.000 0.000 1.077
50 150.00 1200.00 199 437 1.000 10000.000 0.000 1.077
51 153.00 1200.00 182 441 1.000 10000.000 0.000 1.077
52 156.00 1200.00 163 436 1.000 10000.000 0.000 1.077
53 159.00 1200.00 193 386 1.000 10000.000 0.000 1.077
54 162.00 1200.00 185 356 1.000 10000.000 0.000 1.077
55 165.00 1200.00 175 379 1.000 10000.000 0.000 1.077
56 168.00 1200.00 170 348 1.000 10000.000 0.000 1.077
57 171.00 1200.00 169 372 1.000 10000.000 0.000 1.077
58 174.00 1200.00 180 408 1.000 10000.000 0.000 1.077
59 177.00 1200.00 165 369 1.000 10000.000 0.000 1.077
60 180.00 1200.00 166 395 1.000 10000.000 0.000 1.077
61 183.00 1200.00 187 428 1.000 10000.000 0.000 1.077
62 186.00 1200.00 206 469 1.000 10000.000 0.000 1.077
63 189.00 1200.00 180 536 1.000 10000.000 0.000 1.077
64 192.00 1200.00 208 537 1.000 10000.000 0.000 1.077
65 195.00 1200.00 199 584 1.000 10000.000 0.000 1.077
66 198.00 1200.00 204 592 1.000 10000.000 0.000 1.077
67 201.00 1200.00 233 646 1.000 10000.000 0.000 1.077
68 204.00 1200.00 255 694 1.000 10000.000 0.000 1.077
69 207.00 1200.00 248 715 1.000 10000.000 0.000 1.077
70 210.00 1200.00 251 764 1.000 10000.000 0.000 1.077
71 213.00 1200.00 242 748 1.000 10000.000 0.000 1.077
72 216.00 1200.00 247 762 1.000 10000.000 0.000 1.077
73 219.00 1200.00 256 691 1.000 10000.000 0.000 1.077
74 222.00 1200.00 253 769 1.000 10000.000 0.000 1.077
75 225.00 1200.00 241 742 1.000 10000.000 0.000 1.077
76 228.00 1200.00 238 708 1.000 10000.000 0.000 1.077
77 231.00 1200.00 260 704 1.000 10000.000 0.000 1.077
78 234.00 1200.00 245 654 1.000 10000.000 0.000 1.077
79 237.00 1200.00 230 589 1.000 10000.000 0.000 1.077
80 240.00 1200.00 255 574 1.000 10000.000 0.000 1.077
81 243.00 1200.00 208 511 1.000 10000.000 0.000 1.077
82 246.00 1200.00 178 478 1.000 10000.000 0.000 1.077
83 249.00 1200.00 178 475 1.000 10000.000 0.000 1.077
84 252.00 1200.00 183 452 1.000 10000.000 0.000 1.077
85 255.00 1200.00 193 397 1.000 10000.000 0.000 1.077
86 258.00 1200.00 178 384 1.000 10000.000 0.000 1.077
87 261.00 1200.00 172 338 1.000 10000.000 0.000 1.077
88 264.00 1200.00 167 387 1.000 10000.000 0.000 1.077
89 267.00 1200.00 199 351 1.000 10000.000 0.000 1.077
90 270.00 1200.00 176 342 1.000 10000.000 0.000 1.077
91 273.00 1200.00 162 370 1.000 10000.000 0.000 1.077
92 276.00 1200.00 166 383 1.000 10000.000 0.000 1.077
93 279.00 1200.00 183 369 1.000 10000.000 0.000 1.077
94 282.00 1200.00 178 432 1.000 10000.000 0.000 1.077
95 285.00 1200.00 168 441 1.000 10000.000 0.000 1.077
96 288.00 1200.00 200 477 1.000 10000.000 0.000 1.077
97 291.00 1200.00 181 513 1.000 10000.000 0.000 1.077
98 294.00 1200.00 221 573 1.000 10000.000 0.000 1.077
99 297.00 1200.00 226 565 1.000 10000.000 0.000 1.077
100 300.00 1200.00 187 526 1.000 10000.000 0.000 1.077
