# BinNR microsec tot-time (s)  O-Beam AUX Ampl(V) f(Hz) phase(deg) chi(pos)
0 0.00 1200.01 163 565 1.000 10000.000 0.000 -0.703
1 3.00 1200.01 299 1143 1.000 10000.000 0.000 -0.703
2 6.00 1200.01 341 1148 1.000 10000.000 0.000 -0.703
3 9.00 1200.01 362 1165 1.000 10000.000 0.000 -0.703
4 12.00 1200.01 327 1094 1.000 10000.000 0.000 -0.703
5 15.00 1200.01 380 1185 1.000 10000.000 0.000 -0.703
6 18.00 1200.01 342 1202 1.000 10000.000 0.000 -0.703
7 21.00 1200.01 387 1183 1.000 10000.000 0.000 -0.703
8 24.00 1200.01 382 1074 1.000 10000.000 0.000 -0.703
9 27.00 1200.01 344 1091 1.000 10000.000 0.000 -0.703
10 30.00 1200.01 332 1092 1.000 10000.000 0.000 -0.703
11 33.00 1200.01 363 1104 1.000 10000.000 0.000 -0.703
12 36.00 1200.01 341 1085 1.000 10000.000 0.000 -0.703
13 39.00 1200.01 309 1005 1.000 10000.000 0.000 -0.703
14 42.00 1200.01 351 954 1.000 10000.000 0.000 -0.703
15 45.00 1200.01 290 897 1.000 10000.000 0.000 -0.703
16 48.00 1200.01 307 911 1.000 10000.000 0.000 -0.703
17 51.00 1200.01 303 865 1.000 10000.000 0.000 -0.703
18 54.00 1200.01 282 809 1.000 10000.000 0.000 -0.703
19 57.00 1200.01 296 825 1.000 10000.000 0.000 -0.703
20 60.00 1200.01 261 787 1.000 10000.000 0.000 -0.703
21 63.00 1200.01 263 754 1.000 10000.000 0.000 -0.703
22 66.00 1200.01 280 742 1.000 10000.000 0.000 -0.703
23 69.00 1200.01 263 689 1.000 10000.000 0.000 -0.703
24 72.00 1200.01 283 702 1.000 10000.000 0.000 -0.703
25 75.00 1200.01 249 736 1.000 10000.000 0.000 -0.703
26 78.00 1200.01 277 765 1.000 10000.000 0.000 -0.703
27 81.00 1200.01 267 824 1.000 10000.000 0.000 -0.703
28 84.00 1200.01 293 862 1.000 10000.000 0.000 -0.703
29 87.00 1200.01 314 855 1.000 10000.000 0.000 -0.703
30 90.00 1200.01 314 932 1.000 10000.000 0.000 -0.703
31 93.00 1200.01 311 972 1.000 10000.000 0.000 -0.703
32 96.00 1200.01 339 934 1.000 10000.000 0.000 -0.703
33 99.00 1200.01 323 1010 1.000 10000.000 0.000 -0.703
34 102.00 1200.01 371 1118 1.000 10000.000 0.000 -0.703
35 105.00 1200.01 370 1050 1.000 10000.000 0.000 -0.703
36 108.00 1200.01 369 1175 1.000 10000.000 0.000 -0.703
37 111.00 1200.01 357 1136 1.000 10000.000 0.000 -0.703
38 114.00 1200.01 351 1155 1.000 10000.000 0.000 -0.703
39 117.00 1200.01 329 1192 1.000 10000.000 0.000 -0.703
40 120.00 1200.01 375 1233 1.000 10000.000 0.000 -0.703
41 123.00 1200.01 387 1145 1.000 10000.000 0.000 -0.703
42 126.00 1200.01 379 1135 1.000 10000.000 0.000 -0.703
43 129.00 1200.01 368 1060 1.000 10000.000 0.000 -0.703
44 132.00 1200.01 323 1071 1.000 10000.000 0.000 -0.703
45 135.00 1200.01 338 1130 1.000 10000.000 0.000 -0.703
46 138.00 1200.01 351 1036 1.000 10000.000 0.000 -0.703
47 141.00 1200.01 317 1001 1.000 10000.000 0.000 -0.703
48 144.00 1200.01 358 908 1.000 10000.000 0.000 -0.703
49 147.00 1200.01 321 912 1.000 10000.000 0.000 -0.703
50 150.00 1200.01 308 840 1.000 10000.000 0.000 -0.703
51 153.00 1200.01 310 881 1.000 10000.000 0.000 -0.703
52 156.00 1200.01 294 793 1.000 10000.000 0.000 -0.703
53 159.00 1200.01 285 780 1.000 10000.000 0.000 -0.703
54 162.00 1200.01 291 755 1.000 10000.000 0.000 -0.703
55 165.00 1200.01 243 715 1.000 10000.000 0.000 -0.703
56 168.00 1200.01 275 735 1.000 10000.000 0.000 -0.703
57 171.00 1200.01 263 716 1.000 10000.000 0.000 -0.703
58 174.00 1200.01 268 817 1.000 10000.000 0.000 -0.703
59 177.00 1200.01 293 827 1.000 10000.000 0.000 -0.703
60 180.00 1200.01 262 820 1.000 10000.000 0.000 -0.703
61 183.00 1200.01 275 857 1.000 10000.000 0.000 -0.703
62 186.00 1200.01 294 923 1.000 10000.000 0.000 -0.703
63 189.00 1200.01 304 903 1.000 10000.000 0.000 -0.703
64 192.00 1200.01 276 968 1.000 10000.000 0.000 -0.703
65 195.00 1200.01 309 1010 1.000 10000.000 0.000 -0.703
66 198.00 1200.01 298 1070 1.000 10000.000 0.000 -0.703
67 201.00 1200.01 347 1092 1.000 10000.000 0.000 -0.703
68 204.00 1200.01 346 1077 1.000 10000.000 0.000 -0.703
69 207.00 1200.01 344 1102 1.000 10000.000 0.000 -0.703
70 210.00 1200.01 335 1114 1.000 10000.000 0.000 -0.703
71 213.00 1200.01 352 1202 1.000 10000.000 0.000 -0.703
72 216.00 1200.01 365 1156 1.000 10000.000 0.000 -0.703
73 219.00 1200.01 369 1160 1.000 10000.000 0.000 -0.703
74 222.00 1200.01 388 1110 1.000 10000.000 0.000 -0.703
75 225.00 1200.01 354 1186 1.000 10000.000 0.000 -0.703
76 228.00 1200.01 351 1116 1.000 10000.000 0.000 -0.703
77 231.00 1200.01 334 1151 1.000 10000.000 0.000 -0.703
78 234.00 1200.01 380 1103 1.000 10000.000 0.000 -0.703
79 237.00 1200.01 332 1007 1.000 10000.000 0.000 -0.703
80 240.00 1200.01 321 1018 1.000 10000.000 0.000 -0.703
81 243.00 1200.01 319 936 1.000 10000.000 0.000 -0.703
82 246.00 1200.01 315 911 1.000 10000.000 0.000 -0.703
83 249.00 1200.01 285 880 1.000 10000.000 0.000 -0.703
84 252.00 1200.01 283 869 1.000 10000.000 0.000 -0.703
85 255.00 1200.01 285 822 1.000 10000.000 0.000 -0.703
86 258.00 1200.01 265 774 1.000 10000.000 0.000 -0.703
87 261.00 1200.01 272 737 1.000 10000.000 0.000 -0.703
88 264.00 1200.01 280 777 1.000 10000.000 0.000 -0.703
89 267.00 1200.01 276 723 1.000 10000.000 0.000 -0.703
90 270.00 1200.01 295 814 1.000 10000.000 0.000 -0.703
91 273.00 1200.01 277 740 1.000 10000.000 0.000 -0.703
92 276.00 1200.01 277 867 1.000 10000.000 0.000 -0.703
93 279.00 1200.01 303 730 1.000 10000.000 0.000 -0.703
94 282.00 1200.01 282 831 1.000 10000.000 0.000 -0.703
95 285.00 1200.01 266 867 1.000 10000.000 0.000 -0.703
96 288.00 1200.01 280 926 1.000 10000.000 0.000 -0.703
97 291.00 1200.01 290 960 1.000 10000.000 0.000 -0.703
98 294.00 1200.01 321 1038 1.000 10000.000 0.000 -0.703
99 297.00 1200.01 319 1068 1.000 10000.000 0.000 -0.703
100 300.00 1200.01 276 917 1.000 10000.000 0.000 -0.703
