# BinNR microsec tot-time (s)  O-Beam AUX Ampl(V) f(Hz) phase(deg) chi(pos)
0 0.00 1200.00 82 196 1.000 10000.000 0.000 -1.099
1 3.00 1200.00 159 387 1.000 10000.000 0.000 -1.099
2 6.00 1200.00 169 417 1.000 10000.000 0.000 -1.099
3 9.00 1200.00 192 451 1.000 10000.000 0.000 -1.099
4 12.00 1200.00 185 456 1.000 10000.000 0.000 -1.099
5 15.00 1200.00 186 485 1.000 10000.000 0.000 -1.099
6 18.00 1200.00 182 481 1.000 10000.000 0.000 -1.099
7 21.00 1200.00 211 509 1.000 10000.000 0.000 -1.099
8 24.00 1200.00 192 424 1.000 10000.000 0.000 -1.099
9 27.00 1200.00 186 448 1.000 10000.000 0.000 -1.099
10 30.00 1200.00 158 409 1.000 10000.000 0.000 -1.099
11 33.00 1200.00 150 376 1.000 10000.000 0.000 -1.099
12 36.00 1200.00 167 376 1.000 10000.000 0.000 -1.099
13 39.00 1200.00 160 309 1.000 10000.000 0.000 -1.099
14 42.00 1200.00 150 304 1.000 10000.000 0.000 -1.099
15 45.00 1200.00 137 254 1.000 10000.000 0.000 -1.099
16 48.00 1200.00 168 235 1.000 10000.000 0.000 -1.099
17 51.00 1200.00 130 233 1.000 10000.000 0.000 -1.099
18 54.00 1200.00 126 246 1.000 10000.000 0.000 -1.099
19 57.00 1200.00 155 217 1.000 10000.000 0.000 -1.099
20 60.00 1200.00 127 193 1.000 10000.000 0.000 -1.099
21 63.00 1200.00 142 230 1.000 10000.000 0.000 -1.099
22 66.00 1200.00 147 231 1.000 10000.000 0.000 -1.099
23 69.00 1200.00 143 214 1.000 10000.000 0.000 -1.099
24 72.00 1200.00 149 214 1.000 10000.000 0.000 -1.099
25 75.00 1200.00 131 221 1.000 10000.000 0.000 -1.099
26 78.00 1200.00 158 206 1.000 10000.000 0.000 -1.099
27 81.00 1200.00 146 227 1.000 10000.000 0.000 -1.099
28 84.00 1200.00 160 240 1.000 10000.000 0.000 -1.099
29 87.00 1200.00 150 227 1.000 10000.000 0.000 -1.099
30 90.00 1200.00 158 246 1.000 10000.000 0.000 -1.099
31 93.00 1200.00 158 281 1.000 10000.000 0.000 -1.099
32 96.00 1200.00 167 325 1.000 10000.000 0.000 -1.099
33 99.00 1200.00 165 358 1.000 10000.000 0.000 -1.099
34 102.00 1200.00 149 374 1.000 10000.000 0.000 -1.099
35 105.00 1200.00 162 426 1.000 10000.000 0.000 -1.099
36 108.00 1200.00 199 409 1.000 10000.000 0.000 -1.099
37 111.00 1200.00 201 456 1.000 10000.000 0.000 -1.099
38 114.00 1200.00 148 432 1.000 10000.000 0.000 -1.099
39 117.00 1200.00 167 477 1.000 10000.000 0.000 -1.099
40 120.00 1200.00 201 474 1.000 10000.000 0.000 -1.099
41 123.00 1200.00 170 442 1.000 10000.000 0.000 -1.099
42 126.00 1200.00 179 387 1.000 10000.000 0.000 -1.099
43 129.00 1200.00 165 427 1.000 10000.000 0.000 -1.099
44 132.00 1200.00 152 410 1.000 10000.000 0.000 -1.099
45 135.00 1200.00 170 327 1.000 10000.000 0.000 -1.099
46 138.00 1200.00 150 342 1.000 10000.000 0.000 -1.099
47 141.00 1200.00 155 318 1.000 10000.000 0.000 -1.099
48 144.00 1200.00 148 324 1.000 10000.000 0.000 -1.099
49 147.00 1200.00 133 254 1.000 10000.000 0.000 -1.099
50 150.00 1200.00 133 261 1.000 10000.000 0.000 -1.099
51 153.00 1200.00 133 219 1.000 10000.000 0.000 -1.099
52 156.00 1200.00 147 223 1.000 10000.000 0.000 -1.099
53 159.00 1200.00 142 227 1.000 10000.000 0.000 -1.099
54 162.00 1200.00 147 225 1.000 10000.000 0.000 -1.099
55 165.00 1200.00 154 221 1.000 10000.000 0.000 -1.099
56 168.00 1200.00 152 239 1.000 10000.000 0.000 -1.099
57 171.00 1200.00 149 254 1.000 10000.000 0.000 -1.099
58 174.00 1200.00 162 203 1.000 10000.000 0.000 -1.099
59 177.00 1200.00 139 227 1.000 10000.000 0.000 -1.099
60 180.00 1200.00 145 226 1.000 10000.000 0.000 -1.099
61 183.00 1200.00 155 205 1.000 10000.000 0.000 -1.099
62 186.00 1200.00 156 255 1.000 10000.000 0.000 -1.099
63 189.00 1200.00 128 258 1.000 10000.000 0.000 -1.099
64 192.00 1200.00 164 308 1.000 10000.000 0.000 -1.099
65 195.00 1200.00 164 305 1.000 10000.000 0.000 -1.099
66 198.00 1200.00 176 333 1.000 10000.000 0.000 -1.099
67 201.00 1200.00 167 346 1.000 10000.000 0.000 -1.099
68 204.00 1200.00 162 407 1.000 10000.000 0.000 -1.099
69 207.00 1200.00 181 384 1.000 10000.000 0.000 -1.099
70 210.00 1200.00 175 431 1.000 10000.000 0.000 -1.099
71 213.00 1200.00 180 471 1.000 10000.000 0.000 -1.099
72 216.00 1200.00 168 473 1.000 10000.000 0.000 -1.099
73 219.00 1200.00 174 479 1.000 10000.000 0.000 -1.099
74 222.00 1200.00 169 479 1.000 10000.000 0.000 -1.099
75 225.00 1200.00 181 402 1.000 10000.000 0.000 -1.099
76 228.00 1200.00 198 435 1.000 10000.000 0.000 -1.099
77 231.00 1200.00 182 365 1.000 10000.000 0.000 -1.099
78 234.00 1200.00 182 357 1.000 10000.000 0.000 -1.099
79 237.00 1200.00 186 366 1.000 10000.000 0.000 -1.099
80 240.00 1200.00 153 321 1.000 10000.000 0.000 -1.099
81 243.00 1200.00 163 301 1.000 10000.000 0.000 -1.099
82 246.00 1200.00 149 286 1.000 10000.000 0.000 -1.099
83 249.00 1200.00 152 286 1.000 10000.000 0.000 -1.099
84 252.00 1200.00 149 250 1.000 10000.000 0.000 -1.099
85 255.00 1200.00 140 232 1.000 10000.000 0.000 -1.099
86 258.00 1200.00 138 234 1.000 10000.000 0.000 -1.099
87 261.00 1200.00 137 213 1.000 10000.000 0.000 -1.099
88 264.00 1200.00 161 220 1.000 10000.000 0.000 -1.099
89 267.00 1200.00 111 216 1.000 10000.000 0.000 -1.099
90 270.00 1200.00 129 226 1.000 10000.000 0.000 -1.099
91 273.00 1200.00 139 224 1.000 10000.000 0.000 -1.099
92 276.00 1200.00 170 231 1.000 10000.000 0.000 -1.099
93 279.00 1200.00 153 213 1.000 10000.000 0.000 -1.099
94 282.00 1200.00 147 262 1.000 10000.000 0.000 -1.099
95 285.00 1200.00 165 239 1.000 10000.000 0.000 -1.099
96 288.00 1200.00 149 271 1.000 10000.000 0.000 -1.099
97 291.00 1200.00 149 268 1.000 10000.000 0.000 -1.099
98 294.00 1200.00 173 327 1.000 10000.000 0.000 -1.099
99 297.00 1200.00 165 329 1.000 10000.000 0.000 -1.099
100 300.00 1200.00 142 292 1.000 10000.000 0.000 -1.099
