# BinNR microsec tot-time (s)  O-Beam AUX Ampl(V) f(Hz) phase(deg) chi(pos)
0 0.00 1200.00 58 73 1.000 10000.000 0.000 -1.307
1 3.00 1200.00 154 188 1.000 10000.000 0.000 -1.307
2 6.00 1200.00 155 208 1.000 10000.000 0.000 -1.307
3 9.00 1200.00 152 207 1.000 10000.000 0.000 -1.307
4 12.00 1200.00 127 238 1.000 10000.000 0.000 -1.307
5 15.00 1200.00 135 226 1.000 10000.000 0.000 -1.307
6 18.00 1200.00 155 227 1.000 10000.000 0.000 -1.307
7 21.00 1200.00 106 210 1.000 10000.000 0.000 -1.307
8 24.00 1200.00 126 220 1.000 10000.000 0.000 -1.307
9 27.00 1200.00 147 195 1.000 10000.000 0.000 -1.307
10 30.00 1200.00 125 188 1.000 10000.000 0.000 -1.307
11 33.00 1200.00 114 183 1.000 10000.000 0.000 -1.307
12 36.00 1200.00 126 178 1.000 10000.000 0.000 -1.307
13 39.00 1200.00 125 167 1.000 10000.000 0.000 -1.307
14 42.00 1200.00 150 179 1.000 10000.000 0.000 -1.307
15 45.00 1200.00 134 157 1.000 10000.000 0.000 -1.307
16 48.00 1200.00 155 161 1.000 10000.000 0.000 -1.307
17 51.00 1200.00 130 168 1.000 10000.000 0.000 -1.307
18 54.00 1200.00 128 194 1.000 10000.000 0.000 -1.307
19 57.00 1200.00 165 210 1.000 10000.000 0.000 -1.307
20 60.00 1200.00 171 209 1.000 10000.000 0.000 -1.307
21 63.00 1200.00 147 223 1.000 10000.000 0.000 -1.307
22 66.00 1200.00 163 222 1.000 10000.000 0.000 -1.307
23 69.00 1200.00 168 219 1.000 10000.000 0.000 -1.307
24 72.00 1200.00 169 215 1.000 10000.000 0.000 -1.307
25 75.00 1200.00 158 205 1.000 10000.000 0.000 -1.307
26 78.00 1200.00 150 194 1.000 10000.000 0.000 -1.307
27 81.00 1200.00 164 193 1.000 10000.000 0.000 -1.307
28 84.00 1200.00 156 163 1.000 10000.000 0.000 -1.307
29 87.00 1200.00 179 154 1.000 10000.000 0.000 -1.307
30 90.00 1200.00 129 167 1.000 10000.000 0.000 -1.307
31 93.00 1200.00 133 172 1.000 10000.000 0.000 -1.307
32 96.00 1200.00 163 149 1.000 10000.000 0.000 -1.307
33 99.00 1200.00 158 166 1.000 10000.000 0.000 -1.307
34 102.00 1200.00 141 189 1.000 10000.000 0.000 -1.307
35 105.00 1200.00 134 208 1.000 10000.000 0.000 -1.307
36 108.00 1200.00 142 177 1.000 10000.000 0.000 -1.307
37 111.00 1200.00 140 209 1.000 10000.000 0.000 -1.307
38 114.00 1200.00 128 224 1.000 10000.000 0.000 -1.307
39 117.00 1200.00 136 238 1.000 10000.000 0.000 -1.307
40 120.00 1200.00 112 206 1.000 10000.000 0.000 -1.307
41 123.00 1200.00 163 216 1.000 10000.000 0.000 -1.307
42 126.00 1200.00 146 244 1.000 10000.000 0.000 -1.307
43 129.00 1200.00 136 212 1.000 10000.000 0.000 -1.307
44 132.00 1200.00 152 195 1.000 10000.000 0.000 -1.307
45 135.00 1200.00 123 189 1.000 10000.000 0.000 -1.307
46 138.00 1200.00 116 176 1.000 10000.000 0.000 -1.307
47 141.00 1200.00 103 162 1.000 10000.000 0.000 -1.307
48 144.00 1200.00 133 168 1.000 10000.000 0.000 -1.307
49 147.00 1200.00 130 137 1.000 10000.000 0.000 -1.307
50 150.00 1200.00 150 189 1.000 10000.000 0.000 -1.307
51 153.00 1200.00 138 157 1.000 10000.000 0.000 -1.307
52 156.00 1200.00 163 185 1.000 10000.000 0.000 -1.307
53 159.00 1200.00 161 190 1.000 10000.000 0.000 -1.307
54 162.00 1200.00 148 219 1.000 10000.000 0.000 -1.307
55 165.00 1200.00 164 225 1.000 10000.000 0.000 -1.307
56 168.00 1200.00 160 231 1.000 10000.000 0.000 -1.307
57 171.00 1200.00 143 231 1.000 10000.000 0.000 -1.307
58 174.00 1200.00 182 218 1.000 10000.000 0.000 -1.307
59 177.00 1200.00 155 226 1.000 10000.000 0.000 -1.307
60 180.00 1200.00 158 194 1.000 10000.000 0.000 -1.307
61 183.00 1200.00 146 166 1.000 10000.000 0.000 -1.307
62 186.00 1200.00 174 155 1.000 10000.000 0.000 -1.307
63 189.00 1200.00 152 163 1.000 10000.000 0.000 -1.307
64 192.00 1200.00 158 146 1.000 10000.000 0.000 -1.307
65 195.00 1200.00 142 141 1.000 10000.000 0.000 -1.307
66 198.00 1200.00 150 157 1.000 10000.000 0.000 -1.307
67 201.00 1200.00 135 172 1.000 10000.000 0.000 -1.307
68 204.00 1200.00 143 210 1.000 10000.000 0.000 -1.307
69 207.00 1200.00 138 198 1.000 10000.000 0.000 -1.307
70 210.00 1200.00 166 265 1.000 10000.000 0.000 -1.307
71 213.00 1200.00 136 226 1.000 10000.000 0.000 -1.307
72 216.00 1200.00 119 246 1.000 10000.000 0.000 -1.307
73 219.00 1200.00 154 251 1.000 10000.000 0.000 -1.307
74 222.00 1200.00 130 229 1.000 10000.000 0.000 -1.307
75 225.00 1200.00 147 235 1.000 10000.000 0.000 -1.307
76 228.00 1200.00 138 187 1.000 10000.000 0.000 -1.307
77 231.00 1200.00 142 197 1.000 10000.000 0.000 -1.307
78 234.00 1200.00 133 161 1.000 10000.000 0.000 -1.307
79 237.00 1200.00 122 182 1.000 10000.000 0.000 -1.307
80 240.00 1200.00 117 163 1.000 10000.000 0.000 -1.307
81 243.00 1200.00 136 162 1.000 10000.000 0.000 -1.307
82 246.00 1200.00 139 163 1.000 10000.000 0.000 -1.307
83 249.00 1200.00 129 185 1.000 10000.000 0.000 -1.307
84 252.00 1200.00 137 170 1.000 10000.000 0.000 -1.307
85 255.00 1200.00 136 198 1.000 10000.000 0.000 -1.307
86 258.00 1200.00 138 198 1.000 10000.000 0.000 -1.307
87 261.00 1200.00 165 209 1.000 10000.000 0.000 -1.307
88 264.00 1200.00 172 218 1.000 10000.000 0.000 -1.307
89 267.00 1200.00 163 231 1.000 10000.000 0.000 -1.307
90 270.00 1200.00 164 221 1.000 10000.000 0.000 -1.307
91 273.00 1200.00 156 216 1.000 10000.000 0.000 -1.307
92 276.00 1200.00 153 225 1.000 10000.000 0.000 -1.307
93 279.00 1200.00 144 212 1.000 10000.000 0.000 -1.307
94 282.00 1200.00 141 219 1.000 10000.000 0.000 -1.307
95 285.00 1200.00 157 188 1.000 10000.000 0.000 -1.307
96 288.00 1200.00 151 174 1.000 10000.000 0.000 -1.307
97 291.00 1200.00 150 175 1.000 10000.000 0.000 -1.307
98 294.00 1200.00 152 149 1.000 10000.000 0.000 -1.307
99 297.00 1200.00 122 140 1.000 10000.000 0.000 -1.307
100 300.00 1200.00 125 155 1.000 10000.000 0.000 -1.307
