# BinNR microsec tot-time (s)  O-Beam AUX Ampl(V) f(Hz) phase(deg) chi(pos)
0 0.00 1200.01 200 616 1.000 10000.000 0.000 -0.110
1 3.00 1200.01 421 1169 1.000 10000.000 0.000 -0.110
2 6.00 1200.01 445 1288 1.000 10000.000 0.000 -0.110
3 9.00 1200.01 410 1143 1.000 10000.000 0.000 -0.110
4 12.00 1200.01 449 1092 1.000 10000.000 0.000 -0.110
5 15.00 1200.01 409 1022 1.000 10000.000 0.000 -0.110
6 18.00 1200.01 429 1156 1.000 10000.000 0.000 -0.110
7 21.00 1200.01 379 1166 1.000 10000.000 0.000 -0.110
8 24.00 1200.01 411 1149 1.000 10000.000 0.000 -0.110
9 27.00 1200.01 464 1171 1.000 10000.000 0.000 -0.110
10 30.00 1200.01 448 1192 1.000 10000.000 0.000 -0.110
11 33.00 1200.01 436 1172 1.000 10000.000 0.000 -0.110
12 36.00 1200.01 424 1270 1.000 10000.000 0.000 -0.110
13 39.00 1200.01 399 1210 1.000 10000.000 0.000 -0.110
14 42.00 1200.01 493 1345 1.000 10000.000 0.000 -0.110
15 45.00 1200.01 427 1271 1.000 10000.000 0.000 -0.110
16 48.00 1200.01 486 1320 1.000 10000.000 0.000 -0.110
17 51.00 1200.01 466 1315 1.000 10000.000 0.000 -0.110
18 54.00 1200.01 459 1322 1.000 10000.000 0.000 -0.110
19 57.00 1200.01 476 1400 1.000 10000.000 0.000 -0.110
20 60.00 1200.01 488 1396 1.000 10000.000 0.000 -0.110
21 63.00 1200.01 455 1345 1.000 10000.000 0.000 -0.110
22 66.00 1200.01 480 1375 1.000 10000.000 0.000 -0.110
23 69.00 1200.01 480 1396 1.000 10000.000 0.000 -0.110
24 72.00 1200.01 488 1411 1.000 10000.000 0.000 -0.110
25 75.00 1200.01 452 1318 1.000 10000.000 0.000 -0.110
26 78.00 1200.01 460 1337 1.000 10000.000 0.000 -0.110
27 81.00 1200.01 442 1367 1.000 10000.000 0.000 -0.110
28 84.00 1200.01 447 1316 1.000 10000.000 0.000 -0.110
29 87.00 1200.01 444 1412 1.000 10000.000 0.000 -0.110
30 90.00 1200.01 449 1275 1.000 10000.000 0.000 -0.110
31 93.00 1200.01 404 1269 1.000 10000.000 0.000 -0.110
32 96.00 1200.01 486 1296 1.000 10000.000 0.000 -0.110
33 99.00 1200.01 416 1252 1.000 10000.000 0.000 -0.110
34 102.00 1200.01 458 1234 1.000 10000.000 0.000 -0.110
35 105.00 1200.01 386 1175 1.000 10000.000 0.000 -0.110
36 108.00 1200.01 416 1174 1.000 10000.000 0.000 -0.110
37 111.00 1200.01 429 1129 1.000 10000.000 0.000 -0.110
38 114.00 1200.01 431 1123 1.000 10000.000 0.000 -0.110
39 117.00 1200.01 428 1079 1.000 10000.000 0.000 -0.110
40 120.00 1200.01 395 1166 1.000 10000.000 0.000 -0.110
41 123.00 1200.01 423 1099 1.000 10000.000 0.000 -0.110
42 126.00 1200.01 427 1160 1.000 10000.000 0.000 -0.110
43 129.00 1200.01 440 1158 1.000 10000.000 0.000 -0.110
44 132.00 1200.01 482 1150 1.000 10000.000 0.000 -0.110
45 135.00 1200.01 392 1215 1.000 10000.000 0.000 -0.110
46 138.00 1200.01 462 1256 1.000 10000.000 0.000 -0.110
47 141.00 1200.01 473 1251 1.000 10000.000 0.000 -0.110
48 144.00 1200.01 505 1337 1.000 10000.000 0.000 -0.110
49 147.00 1200.01 441 1354 1.000 10000.000 0.000 -0.110
50 150.00 1200.01 464 1351 1.000 10000.000 0.000 -0.110
51 153.00 1200.01 505 1347 1.000 10000.000 0.000 -0.110
52 156.00 1200.01 469 1318 1.000 10000.000 0.000 -0.110
53 159.00 1200.01 428 1291 1.000 10000.000 0.000 -0.110
54 162.00 1200.01 460 1361 1.000 10000.000 0.000 -0.110
55 165.00 1200.01 449 1270 1.000 10000.000 0.000 -0.110
56 168.00 1200.01 465 1386 1.000 10000.000 0.000 -0.110
57 171.00 1200.01 523 1335 1.000 10000.000 0.000 -0.110
58 174.00 1200.01 437 1356 1.000 10000.000 0.000 -0.110
59 177.00 1200.01 466 1374 1.000 10000.000 0.000 -0.110
60 180.00 1200.01 452 1421 1.000 10000.000 0.000 -0.110
61 183.00 1200.01 475 1369 1.000 10000.000 0.000 -0.110
62 186.00 1200.01 468 1386 1.000 10000.000 0.000 -0.110
63 189.00 1200.01 438 1307 1.000 10000.000 0.000 -0.110
64 192.00 1200.01 460 1306 1.000 10000.000 0.000 -0.110
65 195.00 1200.01 462 1272 1.000 10000.000 0.000 -0.110
66 198.00 1200.01 428 1314 1.000 10000.000 0.000 -0.110
67 201.00 1200.01 411 1216 1.000 10000.000 0.000 -0.110
68 204.00 1200.01 433 1262 1.000 10000.000 0.000 -0.110
69 207.00 1200.01 456 1191 1.000 10000.000 0.000 -0.110
70 210.00 1200.01 437 1148 1.000 10000.000 0.000 -0.110
71 213.00 1200.01 389 1122 1.000 10000.000 0.000 -0.110
72 216.00 1200.01 437 1194 1.000 10000.000 0.000 -0.110
73 219.00 1200.01 419 1045 1.000 10000.000 0.000 -0.110
74 222.00 1200.01 416 1117 1.000 10000.000 0.000 -0.110
75 225.00 1200.01 448 1138 1.000 10000.000 0.000 -0.110
76 228.00 1200.01 426 1219 1.000 10000.000 0.000 -0.110
77 231.00 1200.01 420 1200 1.000 10000.000 0.000 -0.110
78 234.00 1200.01 439 1201 1.000 10000.000 0.000 -0.110
79 237.00 1200.01 453 1252 1.000 10000.000 0.000 -0.110
80 240.00 1200.01 475 1240 1.000 10000.000 0.000 -0.110
81 243.00 1200.01 458 1269 1.000 10000.000 0.000 -0.110
82 246.00 1200.01 473 1299 1.000 10000.000 0.000 -0.110
83 249.00 1200.01 470 1270 1.000 10000.000 0.000 -0.110
84 252.00 1200.01 496 1365 1.000 10000.000 0.000 -0.110
85 255.00 1200.01 436 1331 1.000 10000.000 0.000 -0.110
86 258.00 1200.01 478 1406 1.000 10000.000 0.000 -0.110
87 261.00 1200.01 425 1314 1.000 10000.000 0.000 -0.110
88 264.00 1200.01 483 1317 1.000 10000.000 0.000 -0.110
89 267.00 1200.01 484 1352 1.000 10000.000 0.000 -0.110
90 270.00 1200.01 440 1345 1.000 10000.000 0.000 -0.110
91 273.00 1200.01 421 1308 1.000 10000.000 0.000 -0.110
92 276.00 1200.01 449 1325 1.000 10000.000 0.000 -0.110
93 279.00 1200.01 441 1332 1.000 10000.000 0.000 -0.110
94 282.00 1200.01 438 1346 1.000 10000.000 0.000 -0.110
95 285.00 1200.01 445 1326 1.000 10000.000 0.000 -0.110
96 288.00 1200.01 460 1372 1.000 10000.000 0.000 -0.110
97 291.00 1200.01 414 1240 1.000 10000.000 0.000 -0.110
98 294.00 1200.01 429 1281 1.000 10000.000 0.000 -0.110
99 297.00 1200.01 435 1305 1.000 10000.000 0.000 -0.110
100 300.00 1200.01 353 1023 1.000 10000.000 0.000 -0.110
