# BinNR microsec tot-time (s)  O-Beam H-beam AUX Ampl(V) f(Hz) phase(deg) chi(pos)
0 0.00 1200.00 259 631 397 1.112 3000.000 0.000 0.363
1 25.00 1200.00 261 970 141 1.112 3000.000 0.000 0.363
2 50.00 1200.00 258 1254 94 1.112 3000.000 0.000 0.363
3 75.00 1200.00 277 1335 131 1.112 3000.000 0.000 0.363
4 100.00 1200.00 298 1271 112 1.112 3000.000 0.000 0.363
5 125.00 1200.00 263 1240 108 1.112 3000.000 0.000 0.363
6 150.00 1200.00 124 1255 192 1.112 3000.000 0.000 0.363
7 175.00 1200.00 57 1070 423 1.112 3000.000 0.000 0.363
8 200.00 1200.00 81 808 553 1.112 3000.000 0.000 0.363
9 225.00 1200.00 74 635 509 1.112 3000.000 0.000 0.363
10 250.00 1200.00 55 630 484 1.112 3000.000 0.000 0.363
11 275.00 1200.00 85 728 514 1.112 3000.000 0.000 0.363
12 300.00 1200.00 181 638 600 1.112 3000.000 0.000 0.363
13 325.00 1200.00 268 617 431 1.112 3000.000 0.000 0.363
14 350.00 1200.00 266 864 227 1.112 3000.000 0.000 0.363
15 375.00 1200.00 218 1162 115 1.112 3000.000 0.000 0.363
16 400.00 1200.00 244 1317 108 1.112 3000.000 0.000 0.363
17 425.00 1200.00 291 1303 149 1.112 3000.000 0.000 0.363
18 450.00 1200.00 280 1236 81 1.112 3000.000 0.000 0.363
19 475.00 1200.00 176 1338 112 1.112 3000.000 0.000 0.363
20 500.00 1200.00 83 1196 305 1.112 3000.000 0.000 0.363
21 525.00 1200.00 58 827 505 1.112 3000.000 0.000 0.363
22 550.00 1200.00 87 647 520 1.112 3000.000 0.000 0.363
23 575.00 1200.00 56 623 495 1.112 3000.000 0.000 0.363
24 600.00 1200.00 71 751 518 1.112 3000.000 0.000 0.363
25 625.00 1200.00 130 694 585 1.112 3000.000 0.000 0.363
26 650.00 1200.00 254 598 530 1.112 3000.000 0.000 0.363
27 675.00 1200.00 287 716 338 1.112 3000.000 0.000 0.363
28 700.00 1200.00 228 1053 114 1.112 3000.000 0.000 0.363
29 725.00 1200.00 249 1220 103 1.112 3000.000 0.000 0.363
30 750.00 1200.00 277 1266 164 1.112 3000.000 0.000 0.363
31 775.00 1200.00 279 1277 124 1.112 3000.000 0.000 0.363
32 800.00 1200.00 195 1311 118 1.112 3000.000 0.000 0.363
33 825.00 1200.00 113 1263 268 1.112 3000.000 0.000 0.363
34 850.00 1200.00 61 985 487 1.112 3000.000 0.000 0.363
35 875.00 1200.00 82 640 554 1.112 3000.000 0.000 0.363
36 900.00 1200.00 79 624 510 1.112 3000.000 0.000 0.363
37 925.00 1200.00 57 700 443 1.112 3000.000 0.000 0.363
38 950.00 1200.00 89 732 530 1.112 3000.000 0.000 0.363
39 975.00 1200.00 204 630 544 1.112 3000.000 0.000 0.363
