# BinNR microsec tot-time (s)  O-Beam H-beam AUX Ampl(V) f(Hz) phase(deg) chi(pos)
0 0.00 1200.00 56 1307 212 1.112 3000.000 0.000 -0.802
1 25.00 1200.00 119 1094 428 1.112 3000.000 0.000 -0.802
2 50.00 1200.00 138 754 559 1.112 3000.000 0.000 -0.802
3 75.00 1200.00 116 618 561 1.112 3000.000 0.000 -0.802
4 100.00 1200.00 68 575 529 1.112 3000.000 0.000 -0.802
5 125.00 1200.00 78 592 572 1.112 3000.000 0.000 -0.802
6 150.00 1200.00 175 651 406 1.112 3000.000 0.000 -0.802
7 175.00 1200.00 228 928 176 1.112 3000.000 0.000 -0.802
8 200.00 1200.00 276 1322 94 1.112 3000.000 0.000 -0.802
9 225.00 1200.00 307 1298 179 1.112 3000.000 0.000 -0.802
10 250.00 1200.00 288 1051 280 1.112 3000.000 0.000 -0.802
11 275.00 1200.00 237 1083 242 1.112 3000.000 0.000 -0.802
12 300.00 1200.00 132 1082 125 1.112 3000.000 0.000 -0.802
13 325.00 1200.00 69 1321 141 1.112 3000.000 0.000 -0.802
14 350.00 1200.00 110 1155 372 1.112 3000.000 0.000 -0.802
15 375.00 1200.00 146 875 565 1.112 3000.000 0.000 -0.802
16 400.00 1200.00 148 594 575 1.112 3000.000 0.000 -0.802
17 425.00 1200.00 82 594 505 1.112 3000.000 0.000 -0.802
18 450.00 1200.00 69 602 585 1.112 3000.000 0.000 -0.802
19 475.00 1200.00 119 612 494 1.112 3000.000 0.000 -0.802
20 500.00 1200.00 234 830 232 1.112 3000.000 0.000 -0.802
21 525.00 1200.00 291 1216 111 1.112 3000.000 0.000 -0.802
22 550.00 1200.00 279 1289 161 1.112 3000.000 0.000 -0.802
23 575.00 1200.00 309 1150 277 1.112 3000.000 0.000 -0.802
24 600.00 1200.00 249 1024 247 1.112 3000.000 0.000 -0.802
25 625.00 1200.00 179 1112 160 1.112 3000.000 0.000 -0.802
26 650.00 1200.00 65 1283 102 1.112 3000.000 0.000 -0.802
27 675.00 1200.00 80 1294 303 1.112 3000.000 0.000 -0.802
28 700.00 1200.00 157 921 501 1.112 3000.000 0.000 -0.802
29 725.00 1200.00 155 638 570 1.112 3000.000 0.000 -0.802
30 750.00 1200.00 120 596 569 1.112 3000.000 0.000 -0.802
31 775.00 1200.00 54 591 547 1.112 3000.000 0.000 -0.802
32 800.00 1200.00 101 587 522 1.112 3000.000 0.000 -0.802
33 825.00 1200.00 207 733 321 1.112 3000.000 0.000 -0.802
34 850.00 1200.00 298 1073 128 1.112 3000.000 0.000 -0.802
35 875.00 1200.00 298 1250 128 1.112 3000.000 0.000 -0.802
36 900.00 1200.00 290 1243 225 1.112 3000.000 0.000 -0.802
37 925.00 1200.00 268 1031 277 1.112 3000.000 0.000 -0.802
38 950.00 1200.00 200 1038 208 1.112 3000.000 0.000 -0.802
39 975.00 1200.00 98 1167 116 1.112 3000.000 0.000 -0.802
