# BinNR microsec tot-time (s)  O-Beam H-beam AUX Ampl1(V) f1(Hz) phase1(deg) Ampl1(V) f1(Hz) phase1(deg) chi(pos)
0 0.00 1200.00 70 751 218 4.120 2000.000 0.000 4.120 3000.000 0.000 -1.219
1 16.67 1200.00 85 747 203 4.120 2000.000 0.000 4.120 3000.000 0.000 -1.219
2 33.33 1200.00 79 695 208 4.120 2000.000 0.000 4.120 3000.000 0.000 -1.219
3 50.00 1200.00 85 602 182 4.120 2000.000 0.000 4.120 3000.000 0.000 -1.219
4 66.67 1200.00 92 659 201 4.120 2000.000 0.000 4.120 3000.000 0.000 -1.219
5 83.33 1200.00 102 606 187 4.120 2000.000 0.000 4.120 3000.000 0.000 -1.219
6 100.00 1200.00 97 653 224 4.120 2000.000 0.000 4.120 3000.000 0.000 -1.219
7 116.67 1200.00 104 596 238 4.120 2000.000 0.000 4.120 3000.000 0.000 -1.219
8 133.33 1200.00 105 603 233 4.120 2000.000 0.000 4.120 3000.000 0.000 -1.219
9 150.00 1200.00 105 695 219 4.120 2000.000 0.000 4.120 3000.000 0.000 -1.219
10 166.67 1200.00 112 698 222 4.120 2000.000 0.000 4.120 3000.000 0.000 -1.219
11 183.33 1200.00 120 715 251 4.120 2000.000 0.000 4.120 3000.000 0.000 -1.219
12 200.00 1200.00 162 832 230 4.120 2000.000 0.000 4.120 3000.000 0.000 -1.219
13 216.67 1200.00 129 784 231 4.120 2000.000 0.000 4.120 3000.000 0.000 -1.219
14 233.33 1200.00 133 831 209 4.120 2000.000 0.000 4.120 3000.000 0.000 -1.219
15 250.00 1200.00 124 809 230 4.120 2000.000 0.000 4.120 3000.000 0.000 -1.219
16 266.67 1200.00 143 852 203 4.120 2000.000 0.000 4.120 3000.000 0.000 -1.219
17 283.33 1200.00 104 807 222 4.120 2000.000 0.000 4.120 3000.000 0.000 -1.219
18 300.00 1200.00 99 797 214 4.120 2000.000 0.000 4.120 3000.000 0.000 -1.219
19 316.67 1200.00 89 796 190 4.120 2000.000 0.000 4.120 3000.000 0.000 -1.219
20 333.33 1200.00 84 819 202 4.120 2000.000 0.000 4.120 3000.000 0.000 -1.219
21 350.00 1200.00 71 761 204 4.120 2000.000 0.000 4.120 3000.000 0.000 -1.219
22 366.67 1200.00 67 767 206 4.120 2000.000 0.000 4.120 3000.000 0.000 -1.219
23 383.33 1200.00 52 838 278 4.120 2000.000 0.000 4.120 3000.000 0.000 -1.219
24 400.00 1200.00 57 736 278 4.120 2000.000 0.000 4.120 3000.000 0.000 -1.219
25 416.67 1200.00 58 761 298 4.120 2000.000 0.000 4.120 3000.000 0.000 -1.219
26 433.33 1200.00 69 813 348 4.120 2000.000 0.000 4.120 3000.000 0.000 -1.219
27 450.00 1200.00 84 781 330 4.120 2000.000 0.000 4.120 3000.000 0.000 -1.219
28 466.67 1200.00 75 796 351 4.120 2000.000 0.000 4.120 3000.000 0.000 -1.219
29 483.33 1200.00 89 888 368 4.120 2000.000 0.000 4.120 3000.000 0.000 -1.219
30 500.00 1200.00 89 882 386 4.120 2000.000 0.000 4.120 3000.000 0.000 -1.219
31 516.67 1200.00 103 882 374 4.120 2000.000 0.000 4.120 3000.000 0.000 -1.219
32 533.33 1200.00 114 843 354 4.120 2000.000 0.000 4.120 3000.000 0.000 -1.219
33 550.00 1200.00 114 815 320 4.120 2000.000 0.000 4.120 3000.000 0.000 -1.219
34 566.67 1200.00 137 821 273 4.120 2000.000 0.000 4.120 3000.000 0.000 -1.219
35 583.33 1200.00 148 772 254 4.120 2000.000 0.000 4.120 3000.000 0.000 -1.219
36 600.00 1200.00 155 795 196 4.120 2000.000 0.000 4.120 3000.000 0.000 -1.219
37 616.67 1200.00 122 759 174 4.120 2000.000 0.000 4.120 3000.000 0.000 -1.219
38 633.33 1200.00 152 694 129 4.120 2000.000 0.000 4.120 3000.000 0.000 -1.219
39 650.00 1200.00 126 611 138 4.120 2000.000 0.000 4.120 3000.000 0.000 -1.219
40 666.67 1200.00 131 691 114 4.120 2000.000 0.000 4.120 3000.000 0.000 -1.219
41 683.33 1200.00 111 629 114 4.120 2000.000 0.000 4.120 3000.000 0.000 -1.219
42 700.00 1200.00 98 579 129 4.120 2000.000 0.000 4.120 3000.000 0.000 -1.219
43 716.67 1200.00 90 594 132 4.120 2000.000 0.000 4.120 3000.000 0.000 -1.219
44 733.33 1200.00 81 607 132 4.120 2000.000 0.000 4.120 3000.000 0.000 -1.219
45 750.00 1200.00 73 643 170 4.120 2000.000 0.000 4.120 3000.000 0.000 -1.219
46 766.67 1200.00 98 713 224 4.120 2000.000 0.000 4.120 3000.000 0.000 -1.219
47 783.33 1200.00 90 763 237 4.120 2000.000 0.000 4.120 3000.000 0.000 -1.219
48 800.00 1200.00 85 823 264 4.120 2000.000 0.000 4.120 3000.000 0.000 -1.219
49 816.67 1200.00 91 800 323 4.120 2000.000 0.000 4.120 3000.000 0.000 -1.219
50 833.34 1200.00 94 915 331 4.120 2000.000 0.000 4.120 3000.000 0.000 -1.219
51 850.00 1200.00 120 934 364 4.120 2000.000 0.000 4.120 3000.000 0.000 -1.219
52 866.67 1200.00 95 918 336 4.120 2000.000 0.000 4.120 3000.000 0.000 -1.219
53 883.34 1200.00 85 920 379 4.120 2000.000 0.000 4.120 3000.000 0.000 -1.219
54 900.00 1200.00 99 903 356 4.120 2000.000 0.000 4.120 3000.000 0.000 -1.219
55 916.67 1200.00 108 940 351 4.120 2000.000 0.000 4.120 3000.000 0.000 -1.219
56 933.34 1200.00 98 954 326 4.120 2000.000 0.000 4.120 3000.000 0.000 -1.219
57 950.00 1200.00 91 906 270 4.120 2000.000 0.000 4.120 3000.000 0.000 -1.219
58 966.67 1200.00 87 930 253 4.120 2000.000 0.000 4.120 3000.000 0.000 -1.219
59 983.34 1200.00 64 797 235 4.120 2000.000 0.000 4.120 3000.000 0.000 -1.219
