# BinNR microsec tot-time (s)  O-Beam H-beam AUX Ampl1(V) f1(Hz) phase1(deg) Ampl1(V) f1(Hz) phase1(deg) chi(pos)
0 0.00 1200.00 41 1027 75 4.120 2000.000 0.000 4.120 3000.000 0.000 0.363
1 16.67 1200.00 30 1027 71 4.120 2000.000 0.000 4.120 3000.000 0.000 0.363
2 33.33 1200.00 42 983 71 4.120 2000.000 0.000 4.120 3000.000 0.000 0.363
3 50.00 1200.00 42 1026 67 4.120 2000.000 0.000 4.120 3000.000 0.000 0.363
4 66.67 1200.00 34 1020 62 4.120 2000.000 0.000 4.120 3000.000 0.000 0.363
5 83.33 1200.00 36 999 66 4.120 2000.000 0.000 4.120 3000.000 0.000 0.363
6 100.00 1200.00 50 955 75 4.120 2000.000 0.000 4.120 3000.000 0.000 0.363
7 116.67 1200.00 48 1018 72 4.120 2000.000 0.000 4.120 3000.000 0.000 0.363
8 133.33 1200.00 51 1013 56 4.120 2000.000 0.000 4.120 3000.000 0.000 0.363
9 150.00 1200.00 45 993 72 4.120 2000.000 0.000 4.120 3000.000 0.000 0.363
10 166.67 1200.00 44 1021 76 4.120 2000.000 0.000 4.120 3000.000 0.000 0.363
11 183.33 1200.00 53 995 77 4.120 2000.000 0.000 4.120 3000.000 0.000 0.363
12 200.00 1200.00 60 1047 87 4.120 2000.000 0.000 4.120 3000.000 0.000 0.363
13 216.67 1200.00 50 1029 69 4.120 2000.000 0.000 4.120 3000.000 0.000 0.363
14 233.33 1200.00 55 1034 83 4.120 2000.000 0.000 4.120 3000.000 0.000 0.363
15 250.00 1200.00 50 1000 82 4.120 2000.000 0.000 4.120 3000.000 0.000 0.363
16 266.67 1200.00 41 977 90 4.120 2000.000 0.000 4.120 3000.000 0.000 0.363
17 283.33 1200.00 41 1086 65 4.120 2000.000 0.000 4.120 3000.000 0.000 0.363
18 300.00 1200.00 47 1045 92 4.120 2000.000 0.000 4.120 3000.000 0.000 0.363
19 316.67 1200.00 42 1111 68 4.120 2000.000 0.000 4.120 3000.000 0.000 0.363
20 333.33 1200.00 48 1060 73 4.120 2000.000 0.000 4.120 3000.000 0.000 0.363
21 350.00 1200.00 42 1052 63 4.120 2000.000 0.000 4.120 3000.000 0.000 0.363
22 366.67 1200.00 50 1055 78 4.120 2000.000 0.000 4.120 3000.000 0.000 0.363
23 383.33 1200.00 52 1114 70 4.120 2000.000 0.000 4.120 3000.000 0.000 0.363
24 400.00 1200.00 57 1104 68 4.120 2000.000 0.000 4.120 3000.000 0.000 0.363
25 416.67 1200.00 44 997 76 4.120 2000.000 0.000 4.120 3000.000 0.000 0.363
26 433.33 1200.00 39 1026 84 4.120 2000.000 0.000 4.120 3000.000 0.000 0.363
27 450.00 1200.00 28 1078 97 4.120 2000.000 0.000 4.120 3000.000 0.000 0.363
28 466.67 1200.00 47 1031 121 4.120 2000.000 0.000 4.120 3000.000 0.000 0.363
29 483.33 1200.00 48 993 128 4.120 2000.000 0.000 4.120 3000.000 0.000 0.363
30 500.00 1200.00 38 1090 118 4.120 2000.000 0.000 4.120 3000.000 0.000 0.363
31 516.67 1200.00 39 1047 108 4.120 2000.000 0.000 4.120 3000.000 0.000 0.363
32 533.33 1200.00 53 1055 81 4.120 2000.000 0.000 4.120 3000.000 0.000 0.363
33 550.00 1200.00 52 1027 77 4.120 2000.000 0.000 4.120 3000.000 0.000 0.363
34 566.67 1200.00 43 1030 83 4.120 2000.000 0.000 4.120 3000.000 0.000 0.363
35 583.33 1200.00 49 976 73 4.120 2000.000 0.000 4.120 3000.000 0.000 0.363
36 600.00 1200.00 53 1100 79 4.120 2000.000 0.000 4.120 3000.000 0.000 0.363
37 616.67 1200.00 58 1030 81 4.120 2000.000 0.000 4.120 3000.000 0.000 0.363
38 633.33 1200.00 48 1031 87 4.120 2000.000 0.000 4.120 3000.000 0.000 0.363
39 650.00 1200.00 45 1031 105 4.120 2000.000 0.000 4.120 3000.000 0.000 0.363
40 666.67 1200.00 34 970 107 4.120 2000.000 0.000 4.120 3000.000 0.000 0.363
41 683.33 1200.00 49 1020 136 4.120 2000.000 0.000 4.120 3000.000 0.000 0.363
42 700.00 1200.00 26 988 115 4.120 2000.000 0.000 4.120 3000.000 0.000 0.363
43 716.67 1200.00 33 979 121 4.120 2000.000 0.000 4.120 3000.000 0.000 0.363
44 733.33 1200.00 35 956 96 4.120 2000.000 0.000 4.120 3000.000 0.000 0.363
45 750.00 1200.00 45 937 75 4.120 2000.000 0.000 4.120 3000.000 0.000 0.363
46 766.67 1200.00 48 997 83 4.120 2000.000 0.000 4.120 3000.000 0.000 0.363
47 783.33 1200.00 37 977 57 4.120 2000.000 0.000 4.120 3000.000 0.000 0.363
48 800.00 1200.00 35 966 83 4.120 2000.000 0.000 4.120 3000.000 0.000 0.363
49 816.67 1200.00 43 999 106 4.120 2000.000 0.000 4.120 3000.000 0.000 0.363
50 833.34 1200.00 29 967 94 4.120 2000.000 0.000 4.120 3000.000 0.000 0.363
51 850.00 1200.00 41 1034 94 4.120 2000.000 0.000 4.120 3000.000 0.000 0.363
52 866.67 1200.00 33 964 103 4.120 2000.000 0.000 4.120 3000.000 0.000 0.363
53 883.34 1200.00 44 958 117 4.120 2000.000 0.000 4.120 3000.000 0.000 0.363
54 900.00 1200.00 38 947 88 4.120 2000.000 0.000 4.120 3000.000 0.000 0.363
55 916.67 1200.00 42 958 94 4.120 2000.000 0.000 4.120 3000.000 0.000 0.363
56 933.34 1200.00 49 1026 98 4.120 2000.000 0.000 4.120 3000.000 0.000 0.363
57 950.00 1200.00 46 972 75 4.120 2000.000 0.000 4.120 3000.000 0.000 0.363
58 966.67 1200.00 39 999 77 4.120 2000.000 0.000 4.120 3000.000 0.000 0.363
59 983.34 1200.00 49 978 72 4.120 2000.000 0.000 4.120 3000.000 0.000 0.363
