# BinNR microsec tot-time (s)  O-Beam H-beam AUX Ampl1(V) f1(Hz) phase1(deg) Ampl1(V) f1(Hz) phase1(deg) chi(pos)
0 0.00 1200.00 145 493 449 4.120 2000.000 0.000 4.120 3000.000 0.000 1.505
1 16.67 1200.00 165 505 443 4.120 2000.000 0.000 4.120 3000.000 0.000 1.505
2 33.33 1200.00 154 518 408 4.120 2000.000 0.000 4.120 3000.000 0.000 1.505
3 50.00 1200.00 194 555 463 4.120 2000.000 0.000 4.120 3000.000 0.000 1.505
4 66.67 1200.00 159 528 483 4.120 2000.000 0.000 4.120 3000.000 0.000 1.505
5 83.33 1200.00 181 592 454 4.120 2000.000 0.000 4.120 3000.000 0.000 1.505
6 100.00 1200.00 167 593 482 4.120 2000.000 0.000 4.120 3000.000 0.000 1.505
7 116.67 1200.00 170 546 404 4.120 2000.000 0.000 4.120 3000.000 0.000 1.505
8 133.33 1200.00 154 560 431 4.120 2000.000 0.000 4.120 3000.000 0.000 1.505
9 150.00 1200.00 141 591 438 4.120 2000.000 0.000 4.120 3000.000 0.000 1.505
10 166.67 1200.00 171 536 437 4.120 2000.000 0.000 4.120 3000.000 0.000 1.505
11 183.33 1200.00 142 479 428 4.120 2000.000 0.000 4.120 3000.000 0.000 1.505
12 200.00 1200.00 142 484 445 4.120 2000.000 0.000 4.120 3000.000 0.000 1.505
13 216.67 1200.00 122 464 423 4.120 2000.000 0.000 4.120 3000.000 0.000 1.505
14 233.33 1200.00 121 438 445 4.120 2000.000 0.000 4.120 3000.000 0.000 1.505
15 250.00 1200.00 154 426 403 4.120 2000.000 0.000 4.120 3000.000 0.000 1.505
16 266.67 1200.00 139 490 428 4.120 2000.000 0.000 4.120 3000.000 0.000 1.505
17 283.33 1200.00 149 443 450 4.120 2000.000 0.000 4.120 3000.000 0.000 1.505
18 300.00 1200.00 165 455 496 4.120 2000.000 0.000 4.120 3000.000 0.000 1.505
19 316.67 1200.00 168 410 474 4.120 2000.000 0.000 4.120 3000.000 0.000 1.505
20 333.33 1200.00 156 455 454 4.120 2000.000 0.000 4.120 3000.000 0.000 1.505
21 350.00 1200.00 174 471 461 4.120 2000.000 0.000 4.120 3000.000 0.000 1.505
22 366.67 1200.00 155 451 469 4.120 2000.000 0.000 4.120 3000.000 0.000 1.505
23 383.33 1200.00 180 514 412 4.120 2000.000 0.000 4.120 3000.000 0.000 1.505
24 400.00 1200.00 153 470 416 4.120 2000.000 0.000 4.120 3000.000 0.000 1.505
25 416.67 1200.00 154 496 394 4.120 2000.000 0.000 4.120 3000.000 0.000 1.505
26 433.33 1200.00 161 470 399 4.120 2000.000 0.000 4.120 3000.000 0.000 1.505
27 450.00 1200.00 173 455 411 4.120 2000.000 0.000 4.120 3000.000 0.000 1.505
28 466.67 1200.00 155 475 392 4.120 2000.000 0.000 4.120 3000.000 0.000 1.505
29 483.33 1200.00 146 510 368 4.120 2000.000 0.000 4.120 3000.000 0.000 1.505
30 500.00 1200.00 141 440 356 4.120 2000.000 0.000 4.120 3000.000 0.000 1.505
31 516.67 1200.00 147 469 381 4.120 2000.000 0.000 4.120 3000.000 0.000 1.505
32 533.33 1200.00 127 492 368 4.120 2000.000 0.000 4.120 3000.000 0.000 1.505
33 550.00 1200.00 145 440 399 4.120 2000.000 0.000 4.120 3000.000 0.000 1.505
34 566.67 1200.00 117 478 440 4.120 2000.000 0.000 4.120 3000.000 0.000 1.505
35 583.33 1200.00 155 502 429 4.120 2000.000 0.000 4.120 3000.000 0.000 1.505
36 600.00 1200.00 129 491 422 4.120 2000.000 0.000 4.120 3000.000 0.000 1.505
37 616.67 1200.00 130 537 461 4.120 2000.000 0.000 4.120 3000.000 0.000 1.505
38 633.33 1200.00 159 544 436 4.120 2000.000 0.000 4.120 3000.000 0.000 1.505
39 650.00 1200.00 165 532 410 4.120 2000.000 0.000 4.120 3000.000 0.000 1.505
40 666.67 1200.00 155 557 384 4.120 2000.000 0.000 4.120 3000.000 0.000 1.505
41 683.33 1200.00 167 569 456 4.120 2000.000 0.000 4.120 3000.000 0.000 1.505
42 700.00 1200.00 148 615 452 4.120 2000.000 0.000 4.120 3000.000 0.000 1.505
43 716.67 1200.00 158 586 453 4.120 2000.000 0.000 4.120 3000.000 0.000 1.505
44 733.33 1200.00 159 621 506 4.120 2000.000 0.000 4.120 3000.000 0.000 1.505
45 750.00 1200.00 127 603 446 4.120 2000.000 0.000 4.120 3000.000 0.000 1.505
46 766.67 1200.00 171 540 456 4.120 2000.000 0.000 4.120 3000.000 0.000 1.505
47 783.33 1200.00 163 522 413 4.120 2000.000 0.000 4.120 3000.000 0.000 1.505
48 800.00 1200.00 179 489 421 4.120 2000.000 0.000 4.120 3000.000 0.000 1.505
49 816.67 1200.00 151 480 388 4.120 2000.000 0.000 4.120 3000.000 0.000 1.505
50 833.34 1200.00 168 486 373 4.120 2000.000 0.000 4.120 3000.000 0.000 1.505
51 850.00 1200.00 155 483 348 4.120 2000.000 0.000 4.120 3000.000 0.000 1.505
52 866.67 1200.00 198 496 404 4.120 2000.000 0.000 4.120 3000.000 0.000 1.505
53 883.34 1200.00 174 463 343 4.120 2000.000 0.000 4.120 3000.000 0.000 1.505
54 900.00 1200.00 166 485 378 4.120 2000.000 0.000 4.120 3000.000 0.000 1.505
55 916.67 1200.00 167 464 429 4.120 2000.000 0.000 4.120 3000.000 0.000 1.505
56 933.34 1200.00 162 460 373 4.120 2000.000 0.000 4.120 3000.000 0.000 1.505
57 950.00 1200.00 159 439 427 4.120 2000.000 0.000 4.120 3000.000 0.000 1.505
58 966.67 1200.00 174 443 409 4.120 2000.000 0.000 4.120 3000.000 0.000 1.505
59 983.34 1200.00 171 469 428 4.120 2000.000 0.000 4.120 3000.000 0.000 1.505
