# BinNR microsec tot-time (s)  O-Beam H-beam AUX Ampl1(V) f1(Hz) phase1(deg) Ampl1(V) f1(Hz) phase1(deg) chi(pos)
0 0.00 1200.00 124 539 368 4.120 2000.000 0.000 4.120 3000.000 0.000 1.066
1 16.67 1200.00 130 566 340 4.120 2000.000 0.000 4.120 3000.000 0.000 1.066
2 33.33 1200.00 122 522 336 4.120 2000.000 0.000 4.120 3000.000 0.000 1.066
3 50.00 1200.00 123 545 349 4.120 2000.000 0.000 4.120 3000.000 0.000 1.066
4 66.67 1200.00 117 469 339 4.120 2000.000 0.000 4.120 3000.000 0.000 1.066
5 83.33 1200.00 139 538 338 4.120 2000.000 0.000 4.120 3000.000 0.000 1.066
6 100.00 1200.00 141 493 363 4.120 2000.000 0.000 4.120 3000.000 0.000 1.066
7 116.67 1200.00 145 502 369 4.120 2000.000 0.000 4.120 3000.000 0.000 1.066
8 133.33 1200.00 171 477 337 4.120 2000.000 0.000 4.120 3000.000 0.000 1.066
9 150.00 1200.00 148 549 351 4.120 2000.000 0.000 4.120 3000.000 0.000 1.066
10 166.67 1200.00 177 562 382 4.120 2000.000 0.000 4.120 3000.000 0.000 1.066
11 183.33 1200.00 167 550 339 4.120 2000.000 0.000 4.120 3000.000 0.000 1.066
12 200.00 1200.00 188 568 403 4.120 2000.000 0.000 4.120 3000.000 0.000 1.066
13 216.67 1200.00 180 605 348 4.120 2000.000 0.000 4.120 3000.000 0.000 1.066
14 233.33 1200.00 164 583 316 4.120 2000.000 0.000 4.120 3000.000 0.000 1.066
15 250.00 1200.00 159 625 352 4.120 2000.000 0.000 4.120 3000.000 0.000 1.066
16 266.67 1200.00 144 651 351 4.120 2000.000 0.000 4.120 3000.000 0.000 1.066
17 283.33 1200.00 153 651 298 4.120 2000.000 0.000 4.120 3000.000 0.000 1.066
18 300.00 1200.00 138 634 292 4.120 2000.000 0.000 4.120 3000.000 0.000 1.066
19 316.67 1200.00 115 613 328 4.120 2000.000 0.000 4.120 3000.000 0.000 1.066
20 333.33 1200.00 106 606 299 4.120 2000.000 0.000 4.120 3000.000 0.000 1.066
21 350.00 1200.00 129 562 320 4.120 2000.000 0.000 4.120 3000.000 0.000 1.066
22 366.67 1200.00 104 599 356 4.120 2000.000 0.000 4.120 3000.000 0.000 1.066
23 383.33 1200.00 83 577 390 4.120 2000.000 0.000 4.120 3000.000 0.000 1.066
24 400.00 1200.00 105 613 376 4.120 2000.000 0.000 4.120 3000.000 0.000 1.066
25 416.67 1200.00 88 575 409 4.120 2000.000 0.000 4.120 3000.000 0.000 1.066
26 433.33 1200.00 95 573 418 4.120 2000.000 0.000 4.120 3000.000 0.000 1.066
27 450.00 1200.00 126 597 458 4.120 2000.000 0.000 4.120 3000.000 0.000 1.066
28 466.67 1200.00 133 584 429 4.120 2000.000 0.000 4.120 3000.000 0.000 1.066
29 483.33 1200.00 147 655 466 4.120 2000.000 0.000 4.120 3000.000 0.000 1.066
30 500.00 1200.00 151 644 467 4.120 2000.000 0.000 4.120 3000.000 0.000 1.066
31 516.67 1200.00 151 680 428 4.120 2000.000 0.000 4.120 3000.000 0.000 1.066
32 533.33 1200.00 166 658 416 4.120 2000.000 0.000 4.120 3000.000 0.000 1.066
33 550.00 1200.00 159 657 387 4.120 2000.000 0.000 4.120 3000.000 0.000 1.066
34 566.67 1200.00 163 680 371 4.120 2000.000 0.000 4.120 3000.000 0.000 1.066
35 583.33 1200.00 132 635 364 4.120 2000.000 0.000 4.120 3000.000 0.000 1.066
36 600.00 1200.00 163 585 350 4.120 2000.000 0.000 4.120 3000.000 0.000 1.066
37 616.67 1200.00 182 581 294 4.120 2000.000 0.000 4.120 3000.000 0.000 1.066
38 633.33 1200.00 160 554 282 4.120 2000.000 0.000 4.120 3000.000 0.000 1.066
39 650.00 1200.00 152 515 242 4.120 2000.000 0.000 4.120 3000.000 0.000 1.066
40 666.67 1200.00 167 495 246 4.120 2000.000 0.000 4.120 3000.000 0.000 1.066
41 683.33 1200.00 162 469 244 4.120 2000.000 0.000 4.120 3000.000 0.000 1.066
42 700.00 1200.00 130 501 236 4.120 2000.000 0.000 4.120 3000.000 0.000 1.066
43 716.67 1200.00 139 529 243 4.120 2000.000 0.000 4.120 3000.000 0.000 1.066
44 733.33 1200.00 136 500 277 4.120 2000.000 0.000 4.120 3000.000 0.000 1.066
45 750.00 1200.00 134 466 358 4.120 2000.000 0.000 4.120 3000.000 0.000 1.066
46 766.67 1200.00 125 528 378 4.120 2000.000 0.000 4.120 3000.000 0.000 1.066
47 783.33 1200.00 132 519 344 4.120 2000.000 0.000 4.120 3000.000 0.000 1.066
48 800.00 1200.00 150 571 391 4.120 2000.000 0.000 4.120 3000.000 0.000 1.066
49 816.67 1200.00 160 601 432 4.120 2000.000 0.000 4.120 3000.000 0.000 1.066
50 833.34 1200.00 139 641 436 4.120 2000.000 0.000 4.120 3000.000 0.000 1.066
51 850.00 1200.00 142 675 460 4.120 2000.000 0.000 4.120 3000.000 0.000 1.066
52 866.67 1200.00 113 740 436 4.120 2000.000 0.000 4.120 3000.000 0.000 1.066
53 883.34 1200.00 141 790 406 4.120 2000.000 0.000 4.120 3000.000 0.000 1.066
54 900.00 1200.00 136 819 438 4.120 2000.000 0.000 4.120 3000.000 0.000 1.066
55 916.67 1200.00 126 799 416 4.120 2000.000 0.000 4.120 3000.000 0.000 1.066
56 933.34 1200.00 137 776 436 4.120 2000.000 0.000 4.120 3000.000 0.000 1.066
57 950.00 1200.00 155 718 402 4.120 2000.000 0.000 4.120 3000.000 0.000 1.066
58 966.67 1200.00 143 668 375 4.120 2000.000 0.000 4.120 3000.000 0.000 1.066
59 983.34 1200.00 122 601 358 4.120 2000.000 0.000 4.120 3000.000 0.000 1.066
