# BinNR microsec tot-time (s)  O-Beam H-beam AUX Ampl1(V) f1(Hz) phase1(deg) Ampl1(V) f1(Hz) phase1(deg) chi(pos)
0 0.00 1200.00 82 784 200 4.120 2000.000 0.000 4.120 3000.000 0.000 0.791
1 16.67 1200.00 85 791 184 4.120 2000.000 0.000 4.120 3000.000 0.000 0.791
2 33.33 1200.00 67 757 176 4.120 2000.000 0.000 4.120 3000.000 0.000 0.791
3 50.00 1200.00 78 648 177 4.120 2000.000 0.000 4.120 3000.000 0.000 0.791
4 66.67 1200.00 78 652 166 4.120 2000.000 0.000 4.120 3000.000 0.000 0.791
5 83.33 1200.00 92 600 171 4.120 2000.000 0.000 4.120 3000.000 0.000 0.791
6 100.00 1200.00 98 638 217 4.120 2000.000 0.000 4.120 3000.000 0.000 0.791
7 116.67 1200.00 104 680 225 4.120 2000.000 0.000 4.120 3000.000 0.000 0.791
8 133.33 1200.00 110 682 186 4.120 2000.000 0.000 4.120 3000.000 0.000 0.791
9 150.00 1200.00 102 660 247 4.120 2000.000 0.000 4.120 3000.000 0.000 0.791
10 166.67 1200.00 116 694 223 4.120 2000.000 0.000 4.120 3000.000 0.000 0.791
11 183.33 1200.00 133 782 219 4.120 2000.000 0.000 4.120 3000.000 0.000 0.791
12 200.00 1200.00 124 818 214 4.120 2000.000 0.000 4.120 3000.000 0.000 0.791
13 216.67 1200.00 130 841 220 4.120 2000.000 0.000 4.120 3000.000 0.000 0.791
14 233.33 1200.00 111 892 216 4.120 2000.000 0.000 4.120 3000.000 0.000 0.791
15 250.00 1200.00 111 906 194 4.120 2000.000 0.000 4.120 3000.000 0.000 0.791
16 266.67 1200.00 119 953 168 4.120 2000.000 0.000 4.120 3000.000 0.000 0.791
17 283.33 1200.00 101 881 147 4.120 2000.000 0.000 4.120 3000.000 0.000 0.791
18 300.00 1200.00 84 920 161 4.120 2000.000 0.000 4.120 3000.000 0.000 0.791
19 316.67 1200.00 65 863 177 4.120 2000.000 0.000 4.120 3000.000 0.000 0.791
20 333.33 1200.00 60 845 189 4.120 2000.000 0.000 4.120 3000.000 0.000 0.791
21 350.00 1200.00 64 821 183 4.120 2000.000 0.000 4.120 3000.000 0.000 0.791
22 366.67 1200.00 52 835 218 4.120 2000.000 0.000 4.120 3000.000 0.000 0.791
23 383.33 1200.00 51 842 197 4.120 2000.000 0.000 4.120 3000.000 0.000 0.791
24 400.00 1200.00 55 778 258 4.120 2000.000 0.000 4.120 3000.000 0.000 0.791
25 416.67 1200.00 53 848 275 4.120 2000.000 0.000 4.120 3000.000 0.000 0.791
26 433.33 1200.00 58 834 260 4.120 2000.000 0.000 4.120 3000.000 0.000 0.791
27 450.00 1200.00 82 839 335 4.120 2000.000 0.000 4.120 3000.000 0.000 0.791
28 466.67 1200.00 54 897 327 4.120 2000.000 0.000 4.120 3000.000 0.000 0.791
29 483.33 1200.00 77 887 340 4.120 2000.000 0.000 4.120 3000.000 0.000 0.791
30 500.00 1200.00 94 906 308 4.120 2000.000 0.000 4.120 3000.000 0.000 0.791
31 516.67 1200.00 106 914 313 4.120 2000.000 0.000 4.120 3000.000 0.000 0.791
32 533.33 1200.00 107 914 334 4.120 2000.000 0.000 4.120 3000.000 0.000 0.791
33 550.00 1200.00 117 902 295 4.120 2000.000 0.000 4.120 3000.000 0.000 0.791
34 566.67 1200.00 136 847 265 4.120 2000.000 0.000 4.120 3000.000 0.000 0.791
35 583.33 1200.00 135 836 194 4.120 2000.000 0.000 4.120 3000.000 0.000 0.791
36 600.00 1200.00 118 802 182 4.120 2000.000 0.000 4.120 3000.000 0.000 0.791
37 616.67 1200.00 134 750 146 4.120 2000.000 0.000 4.120 3000.000 0.000 0.791
38 633.33 1200.00 101 717 133 4.120 2000.000 0.000 4.120 3000.000 0.000 0.791
39 650.00 1200.00 124 668 116 4.120 2000.000 0.000 4.120 3000.000 0.000 0.791
40 666.67 1200.00 104 673 104 4.120 2000.000 0.000 4.120 3000.000 0.000 0.791
41 683.33 1200.00 97 630 130 4.120 2000.000 0.000 4.120 3000.000 0.000 0.791
42 700.00 1200.00 91 674 118 4.120 2000.000 0.000 4.120 3000.000 0.000 0.791
43 716.67 1200.00 79 647 102 4.120 2000.000 0.000 4.120 3000.000 0.000 0.791
44 733.33 1200.00 75 632 154 4.120 2000.000 0.000 4.120 3000.000 0.000 0.791
45 750.00 1200.00 74 722 153 4.120 2000.000 0.000 4.120 3000.000 0.000 0.791
46 766.67 1200.00 88 701 184 4.120 2000.000 0.000 4.120 3000.000 0.000 0.791
47 783.33 1200.00 76 778 234 4.120 2000.000 0.000 4.120 3000.000 0.000 0.791
48 800.00 1200.00 97 745 241 4.120 2000.000 0.000 4.120 3000.000 0.000 0.791
49 816.67 1200.00 97 887 284 4.120 2000.000 0.000 4.120 3000.000 0.000 0.791
50 833.34 1200.00 81 890 275 4.120 2000.000 0.000 4.120 3000.000 0.000 0.791
51 850.00 1200.00 77 966 322 4.120 2000.000 0.000 4.120 3000.000 0.000 0.791
52 866.67 1200.00 90 919 341 4.120 2000.000 0.000 4.120 3000.000 0.000 0.791
53 883.34 1200.00 85 980 290 4.120 2000.000 0.000 4.120 3000.000 0.000 0.791
54 900.00 1200.00 86 939 277 4.120 2000.000 0.000 4.120 3000.000 0.000 0.791
55 916.67 1200.00 102 971 311 4.120 2000.000 0.000 4.120 3000.000 0.000 0.791
56 933.34 1200.00 86 967 272 4.120 2000.000 0.000 4.120 3000.000 0.000 0.791
57 950.00 1200.00 85 971 277 4.120 2000.000 0.000 4.120 3000.000 0.000 0.791
58 966.67 1200.00 101 924 239 4.120 2000.000 0.000 4.120 3000.000 0.000 0.791
59 983.34 1200.00 70 793 195 4.120 2000.000 0.000 4.120 3000.000 0.000 0.791
