# BinNR microsec tot-time (s)  O-Beam H-beam AUX Ampl1(V) f1(Hz) phase1(deg) Ampl1(V) f1(Hz) phase1(deg) chi(pos)
0 0.00 1200.00 66 914 118 4.120 2000.000 0.000 4.120 3000.000 0.000 0.637
1 16.67 1200.00 52 877 142 4.120 2000.000 0.000 4.120 3000.000 0.000 0.637
2 33.33 1200.00 54 825 96 4.120 2000.000 0.000 4.120 3000.000 0.000 0.637
3 50.00 1200.00 61 788 100 4.120 2000.000 0.000 4.120 3000.000 0.000 0.637
4 66.67 1200.00 46 780 115 4.120 2000.000 0.000 4.120 3000.000 0.000 0.637
5 83.33 1200.00 62 806 91 4.120 2000.000 0.000 4.120 3000.000 0.000 0.637
6 100.00 1200.00 66 779 135 4.120 2000.000 0.000 4.120 3000.000 0.000 0.637
7 116.67 1200.00 74 787 117 4.120 2000.000 0.000 4.120 3000.000 0.000 0.637
8 133.33 1200.00 76 788 132 4.120 2000.000 0.000 4.120 3000.000 0.000 0.637
9 150.00 1200.00 90 834 149 4.120 2000.000 0.000 4.120 3000.000 0.000 0.637
10 166.67 1200.00 97 858 142 4.120 2000.000 0.000 4.120 3000.000 0.000 0.637
11 183.33 1200.00 104 879 140 4.120 2000.000 0.000 4.120 3000.000 0.000 0.637
12 200.00 1200.00 93 928 140 4.120 2000.000 0.000 4.120 3000.000 0.000 0.637
13 216.67 1200.00 102 953 148 4.120 2000.000 0.000 4.120 3000.000 0.000 0.637
14 233.33 1200.00 102 945 127 4.120 2000.000 0.000 4.120 3000.000 0.000 0.637
15 250.00 1200.00 95 948 115 4.120 2000.000 0.000 4.120 3000.000 0.000 0.637
16 266.67 1200.00 92 992 111 4.120 2000.000 0.000 4.120 3000.000 0.000 0.637
17 283.33 1200.00 75 951 107 4.120 2000.000 0.000 4.120 3000.000 0.000 0.637
18 300.00 1200.00 69 912 99 4.120 2000.000 0.000 4.120 3000.000 0.000 0.637
19 316.67 1200.00 52 990 101 4.120 2000.000 0.000 4.120 3000.000 0.000 0.637
20 333.33 1200.00 57 943 119 4.120 2000.000 0.000 4.120 3000.000 0.000 0.637
21 350.00 1200.00 50 970 135 4.120 2000.000 0.000 4.120 3000.000 0.000 0.637
22 366.67 1200.00 36 927 126 4.120 2000.000 0.000 4.120 3000.000 0.000 0.637
23 383.33 1200.00 35 908 146 4.120 2000.000 0.000 4.120 3000.000 0.000 0.637
24 400.00 1200.00 34 970 159 4.120 2000.000 0.000 4.120 3000.000 0.000 0.637
25 416.67 1200.00 46 997 181 4.120 2000.000 0.000 4.120 3000.000 0.000 0.637
26 433.33 1200.00 56 920 197 4.120 2000.000 0.000 4.120 3000.000 0.000 0.637
27 450.00 1200.00 43 961 236 4.120 2000.000 0.000 4.120 3000.000 0.000 0.637
28 466.67 1200.00 50 952 221 4.120 2000.000 0.000 4.120 3000.000 0.000 0.637
29 483.33 1200.00 46 1012 271 4.120 2000.000 0.000 4.120 3000.000 0.000 0.637
30 500.00 1200.00 55 931 258 4.120 2000.000 0.000 4.120 3000.000 0.000 0.637
31 516.67 1200.00 86 1007 256 4.120 2000.000 0.000 4.120 3000.000 0.000 0.637
32 533.33 1200.00 69 958 208 4.120 2000.000 0.000 4.120 3000.000 0.000 0.637
33 550.00 1200.00 79 912 209 4.120 2000.000 0.000 4.120 3000.000 0.000 0.637
34 566.67 1200.00 103 943 166 4.120 2000.000 0.000 4.120 3000.000 0.000 0.637
35 583.33 1200.00 93 978 141 4.120 2000.000 0.000 4.120 3000.000 0.000 0.637
36 600.00 1200.00 104 901 114 4.120 2000.000 0.000 4.120 3000.000 0.000 0.637
37 616.67 1200.00 103 900 121 4.120 2000.000 0.000 4.120 3000.000 0.000 0.637
38 633.33 1200.00 90 897 72 4.120 2000.000 0.000 4.120 3000.000 0.000 0.637
39 650.00 1200.00 91 862 78 4.120 2000.000 0.000 4.120 3000.000 0.000 0.637
40 666.67 1200.00 63 811 66 4.120 2000.000 0.000 4.120 3000.000 0.000 0.637
41 683.33 1200.00 69 790 60 4.120 2000.000 0.000 4.120 3000.000 0.000 0.637
42 700.00 1200.00 68 731 69 4.120 2000.000 0.000 4.120 3000.000 0.000 0.637
43 716.67 1200.00 53 770 76 4.120 2000.000 0.000 4.120 3000.000 0.000 0.637
44 733.33 1200.00 58 755 103 4.120 2000.000 0.000 4.120 3000.000 0.000 0.637
45 750.00 1200.00 68 798 120 4.120 2000.000 0.000 4.120 3000.000 0.000 0.637
46 766.67 1200.00 57 849 114 4.120 2000.000 0.000 4.120 3000.000 0.000 0.637
47 783.33 1200.00 49 863 156 4.120 2000.000 0.000 4.120 3000.000 0.000 0.637
48 800.00 1200.00 50 908 151 4.120 2000.000 0.000 4.120 3000.000 0.000 0.637
49 816.67 1200.00 57 940 177 4.120 2000.000 0.000 4.120 3000.000 0.000 0.637
50 833.34 1200.00 53 952 232 4.120 2000.000 0.000 4.120 3000.000 0.000 0.637
51 850.00 1200.00 54 1036 262 4.120 2000.000 0.000 4.120 3000.000 0.000 0.637
52 866.67 1200.00 71 979 230 4.120 2000.000 0.000 4.120 3000.000 0.000 0.637
53 883.34 1200.00 61 1060 231 4.120 2000.000 0.000 4.120 3000.000 0.000 0.637
54 900.00 1200.00 61 1041 231 4.120 2000.000 0.000 4.120 3000.000 0.000 0.637
55 916.67 1200.00 74 1030 218 4.120 2000.000 0.000 4.120 3000.000 0.000 0.637
56 933.34 1200.00 66 1060 207 4.120 2000.000 0.000 4.120 3000.000 0.000 0.637
57 950.00 1200.00 48 981 169 4.120 2000.000 0.000 4.120 3000.000 0.000 0.637
58 966.67 1200.00 63 1033 172 4.120 2000.000 0.000 4.120 3000.000 0.000 0.637
59 983.34 1200.00 48 948 142 4.120 2000.000 0.000 4.120 3000.000 0.000 0.637
