# BinNR microsec tot-time (s)  O-Beam H-beam AUX Ampl1(V) f1(Hz) phase1(deg) Ampl1(V) f1(Hz) phase1(deg) chi(pos)
0 0.00 1200.00 105 671 284 4.120 2000.000 0.000 4.120 3000.000 0.000 0.934
1 16.67 1200.00 86 637 253 4.120 2000.000 0.000 4.120 3000.000 0.000 0.934
2 33.33 1200.00 100 623 283 4.120 2000.000 0.000 4.120 3000.000 0.000 0.934
3 50.00 1200.00 97 582 252 4.120 2000.000 0.000 4.120 3000.000 0.000 0.934
4 66.67 1200.00 92 553 273 4.120 2000.000 0.000 4.120 3000.000 0.000 0.934
5 83.33 1200.00 119 524 273 4.120 2000.000 0.000 4.120 3000.000 0.000 0.934
6 100.00 1200.00 113 499 283 4.120 2000.000 0.000 4.120 3000.000 0.000 0.934
7 116.67 1200.00 134 567 290 4.120 2000.000 0.000 4.120 3000.000 0.000 0.934
8 133.33 1200.00 126 551 308 4.120 2000.000 0.000 4.120 3000.000 0.000 0.934
9 150.00 1200.00 144 589 297 4.120 2000.000 0.000 4.120 3000.000 0.000 0.934
10 166.67 1200.00 161 594 323 4.120 2000.000 0.000 4.120 3000.000 0.000 0.934
11 183.33 1200.00 145 635 284 4.120 2000.000 0.000 4.120 3000.000 0.000 0.934
12 200.00 1200.00 137 651 285 4.120 2000.000 0.000 4.120 3000.000 0.000 0.934
13 216.67 1200.00 155 670 286 4.120 2000.000 0.000 4.120 3000.000 0.000 0.934
14 233.33 1200.00 157 723 291 4.120 2000.000 0.000 4.120 3000.000 0.000 0.934
15 250.00 1200.00 153 759 278 4.120 2000.000 0.000 4.120 3000.000 0.000 0.934
16 266.67 1200.00 139 681 218 4.120 2000.000 0.000 4.120 3000.000 0.000 0.934
17 283.33 1200.00 137 779 234 4.120 2000.000 0.000 4.120 3000.000 0.000 0.934
18 300.00 1200.00 114 698 252 4.120 2000.000 0.000 4.120 3000.000 0.000 0.934
19 316.67 1200.00 98 701 218 4.120 2000.000 0.000 4.120 3000.000 0.000 0.934
20 333.33 1200.00 83 740 258 4.120 2000.000 0.000 4.120 3000.000 0.000 0.934
21 350.00 1200.00 82 699 255 4.120 2000.000 0.000 4.120 3000.000 0.000 0.934
22 366.67 1200.00 70 619 262 4.120 2000.000 0.000 4.120 3000.000 0.000 0.934
23 383.33 1200.00 72 640 305 4.120 2000.000 0.000 4.120 3000.000 0.000 0.934
24 400.00 1200.00 66 678 336 4.120 2000.000 0.000 4.120 3000.000 0.000 0.934
25 416.67 1200.00 72 727 341 4.120 2000.000 0.000 4.120 3000.000 0.000 0.934
26 433.33 1200.00 95 716 407 4.120 2000.000 0.000 4.120 3000.000 0.000 0.934
27 450.00 1200.00 80 735 369 4.120 2000.000 0.000 4.120 3000.000 0.000 0.934
28 466.67 1200.00 88 750 391 4.120 2000.000 0.000 4.120 3000.000 0.000 0.934
29 483.33 1200.00 107 804 401 4.120 2000.000 0.000 4.120 3000.000 0.000 0.934
30 500.00 1200.00 137 785 386 4.120 2000.000 0.000 4.120 3000.000 0.000 0.934
31 516.67 1200.00 137 753 392 4.120 2000.000 0.000 4.120 3000.000 0.000 0.934
32 533.33 1200.00 145 800 374 4.120 2000.000 0.000 4.120 3000.000 0.000 0.934
33 550.00 1200.00 135 760 343 4.120 2000.000 0.000 4.120 3000.000 0.000 0.934
34 566.67 1200.00 150 722 345 4.120 2000.000 0.000 4.120 3000.000 0.000 0.934
35 583.33 1200.00 144 711 326 4.120 2000.000 0.000 4.120 3000.000 0.000 0.934
36 600.00 1200.00 137 715 262 4.120 2000.000 0.000 4.120 3000.000 0.000 0.934
37 616.67 1200.00 148 651 209 4.120 2000.000 0.000 4.120 3000.000 0.000 0.934
38 633.33 1200.00 156 611 196 4.120 2000.000 0.000 4.120 3000.000 0.000 0.934
39 650.00 1200.00 168 558 183 4.120 2000.000 0.000 4.120 3000.000 0.000 0.934
40 666.67 1200.00 139 505 179 4.120 2000.000 0.000 4.120 3000.000 0.000 0.934
41 683.33 1200.00 112 550 183 4.120 2000.000 0.000 4.120 3000.000 0.000 0.934
42 700.00 1200.00 137 546 174 4.120 2000.000 0.000 4.120 3000.000 0.000 0.934
43 716.67 1200.00 107 531 183 4.120 2000.000 0.000 4.120 3000.000 0.000 0.934
44 733.33 1200.00 99 530 189 4.120 2000.000 0.000 4.120 3000.000 0.000 0.934
45 750.00 1200.00 96 561 219 4.120 2000.000 0.000 4.120 3000.000 0.000 0.934
46 766.67 1200.00 94 574 267 4.120 2000.000 0.000 4.120 3000.000 0.000 0.934
47 783.33 1200.00 97 638 302 4.120 2000.000 0.000 4.120 3000.000 0.000 0.934
48 800.00 1200.00 109 685 317 4.120 2000.000 0.000 4.120 3000.000 0.000 0.934
49 816.67 1200.00 104 732 367 4.120 2000.000 0.000 4.120 3000.000 0.000 0.934
50 833.34 1200.00 133 769 391 4.120 2000.000 0.000 4.120 3000.000 0.000 0.934
51 850.00 1200.00 98 832 367 4.120 2000.000 0.000 4.120 3000.000 0.000 0.934
52 866.67 1200.00 109 835 385 4.120 2000.000 0.000 4.120 3000.000 0.000 0.934
53 883.34 1200.00 90 892 412 4.120 2000.000 0.000 4.120 3000.000 0.000 0.934
54 900.00 1200.00 135 896 365 4.120 2000.000 0.000 4.120 3000.000 0.000 0.934
55 916.67 1200.00 118 885 364 4.120 2000.000 0.000 4.120 3000.000 0.000 0.934
56 933.34 1200.00 104 837 364 4.120 2000.000 0.000 4.120 3000.000 0.000 0.934
57 950.00 1200.00 86 775 327 4.120 2000.000 0.000 4.120 3000.000 0.000 0.934
58 966.67 1200.00 92 821 306 4.120 2000.000 0.000 4.120 3000.000 0.000 0.934
59 983.34 1200.00 95 695 287 4.120 2000.000 0.000 4.120 3000.000 0.000 0.934
