# BinNR microsec tot-time (s)  O-Beam H-beam AUX Ampl1(V) f1(Hz) phase1(deg) Ampl1(V) f1(Hz) phase1(deg) chi(pos)
0 0.00 1200.00 45 1009 94 4.120 2000.000 0.000 4.120 3000.000 0.000 -1.505
1 16.67 1200.00 55 945 92 4.120 2000.000 0.000 4.120 3000.000 0.000 -1.505
2 33.33 1200.00 43 887 83 4.120 2000.000 0.000 4.120 3000.000 0.000 -1.505
3 50.00 1200.00 53 890 87 4.120 2000.000 0.000 4.120 3000.000 0.000 -1.505
4 66.67 1200.00 47 863 85 4.120 2000.000 0.000 4.120 3000.000 0.000 -1.505
5 83.33 1200.00 44 878 111 4.120 2000.000 0.000 4.120 3000.000 0.000 -1.505
6 100.00 1200.00 72 864 97 4.120 2000.000 0.000 4.120 3000.000 0.000 -1.505
7 116.67 1200.00 65 906 103 4.120 2000.000 0.000 4.120 3000.000 0.000 -1.505
8 133.33 1200.00 56 869 87 4.120 2000.000 0.000 4.120 3000.000 0.000 -1.505
9 150.00 1200.00 57 910 117 4.120 2000.000 0.000 4.120 3000.000 0.000 -1.505
10 166.67 1200.00 74 943 111 4.120 2000.000 0.000 4.120 3000.000 0.000 -1.505
11 183.33 1200.00 82 958 113 4.120 2000.000 0.000 4.120 3000.000 0.000 -1.505
12 200.00 1200.00 67 946 105 4.120 2000.000 0.000 4.120 3000.000 0.000 -1.505
13 216.67 1200.00 89 1000 100 4.120 2000.000 0.000 4.120 3000.000 0.000 -1.505
14 233.33 1200.00 90 982 87 4.120 2000.000 0.000 4.120 3000.000 0.000 -1.505
15 250.00 1200.00 81 1031 93 4.120 2000.000 0.000 4.120 3000.000 0.000 -1.505
16 266.67 1200.00 71 1026 65 4.120 2000.000 0.000 4.120 3000.000 0.000 -1.505
17 283.33 1200.00 50 984 65 4.120 2000.000 0.000 4.120 3000.000 0.000 -1.505
18 300.00 1200.00 51 964 92 4.120 2000.000 0.000 4.120 3000.000 0.000 -1.505
19 316.67 1200.00 42 1010 77 4.120 2000.000 0.000 4.120 3000.000 0.000 -1.505
20 333.33 1200.00 50 965 86 4.120 2000.000 0.000 4.120 3000.000 0.000 -1.505
21 350.00 1200.00 33 1034 79 4.120 2000.000 0.000 4.120 3000.000 0.000 -1.505
22 366.67 1200.00 42 1021 96 4.120 2000.000 0.000 4.120 3000.000 0.000 -1.505
23 383.33 1200.00 38 996 118 4.120 2000.000 0.000 4.120 3000.000 0.000 -1.505
24 400.00 1200.00 41 997 101 4.120 2000.000 0.000 4.120 3000.000 0.000 -1.505
25 416.67 1200.00 39 982 137 4.120 2000.000 0.000 4.120 3000.000 0.000 -1.505
26 433.33 1200.00 48 970 152 4.120 2000.000 0.000 4.120 3000.000 0.000 -1.505
27 450.00 1200.00 45 1014 163 4.120 2000.000 0.000 4.120 3000.000 0.000 -1.505
28 466.67 1200.00 39 998 183 4.120 2000.000 0.000 4.120 3000.000 0.000 -1.505
29 483.33 1200.00 35 1064 222 4.120 2000.000 0.000 4.120 3000.000 0.000 -1.505
30 500.00 1200.00 63 1082 186 4.120 2000.000 0.000 4.120 3000.000 0.000 -1.505
31 516.67 1200.00 57 1020 229 4.120 2000.000 0.000 4.120 3000.000 0.000 -1.505
32 533.33 1200.00 61 1098 167 4.120 2000.000 0.000 4.120 3000.000 0.000 -1.505
33 550.00 1200.00 84 1043 159 4.120 2000.000 0.000 4.120 3000.000 0.000 -1.505
34 566.67 1200.00 87 1098 125 4.120 2000.000 0.000 4.120 3000.000 0.000 -1.505
35 583.33 1200.00 82 1018 96 4.120 2000.000 0.000 4.120 3000.000 0.000 -1.505
36 600.00 1200.00 86 1028 101 4.120 2000.000 0.000 4.120 3000.000 0.000 -1.505
37 616.67 1200.00 90 991 72 4.120 2000.000 0.000 4.120 3000.000 0.000 -1.505
38 633.33 1200.00 83 951 75 4.120 2000.000 0.000 4.120 3000.000 0.000 -1.505
39 650.00 1200.00 62 843 85 4.120 2000.000 0.000 4.120 3000.000 0.000 -1.505
40 666.67 1200.00 61 858 73 4.120 2000.000 0.000 4.120 3000.000 0.000 -1.505
41 683.33 1200.00 56 882 77 4.120 2000.000 0.000 4.120 3000.000 0.000 -1.505
42 700.00 1200.00 43 806 66 4.120 2000.000 0.000 4.120 3000.000 0.000 -1.505
43 716.67 1200.00 48 841 85 4.120 2000.000 0.000 4.120 3000.000 0.000 -1.505
44 733.33 1200.00 34 840 68 4.120 2000.000 0.000 4.120 3000.000 0.000 -1.505
45 750.00 1200.00 49 884 75 4.120 2000.000 0.000 4.120 3000.000 0.000 -1.505
46 766.67 1200.00 39 924 90 4.120 2000.000 0.000 4.120 3000.000 0.000 -1.505
47 783.33 1200.00 46 932 122 4.120 2000.000 0.000 4.120 3000.000 0.000 -1.505
48 800.00 1200.00 52 1025 132 4.120 2000.000 0.000 4.120 3000.000 0.000 -1.505
49 816.67 1200.00 47 1042 143 4.120 2000.000 0.000 4.120 3000.000 0.000 -1.505
50 833.34 1200.00 58 955 174 4.120 2000.000 0.000 4.120 3000.000 0.000 -1.505
51 850.00 1200.00 62 1040 160 4.120 2000.000 0.000 4.120 3000.000 0.000 -1.505
52 866.67 1200.00 61 1082 189 4.120 2000.000 0.000 4.120 3000.000 0.000 -1.505
53 883.34 1200.00 55 1066 166 4.120 2000.000 0.000 4.120 3000.000 0.000 -1.505
54 900.00 1200.00 41 1047 197 4.120 2000.000 0.000 4.120 3000.000 0.000 -1.505
55 916.67 1200.00 44 1021 154 4.120 2000.000 0.000 4.120 3000.000 0.000 -1.505
56 933.34 1200.00 45 1061 135 4.120 2000.000 0.000 4.120 3000.000 0.000 -1.505
57 950.00 1200.00 53 988 139 4.120 2000.000 0.000 4.120 3000.000 0.000 -1.505
58 966.67 1200.00 46 995 100 4.120 2000.000 0.000 4.120 3000.000 0.000 -1.505
59 983.34 1200.00 47 1063 88 4.120 2000.000 0.000 4.120 3000.000 0.000 -1.505
