# BinNR microsec tot-time (s)  O-Beam H-beam AUX Ampl(V) f(Hz) phase(deg) chi(pos)
0 0.00 900.00 408 277 2 0.000 5.373 2000.000 1.351
1 25.00 900.00 406 341 1 0.000 5.373 2000.000 1.351
2 50.00 900.00 391 430 1 0.000 5.373 2000.000 1.351
3 75.00 900.00 384 529 0 0.000 5.373 2000.000 1.351
4 100.00 900.00 376 509 1 0.000 5.373 2000.000 1.351
5 125.00 900.00 404 516 0 0.000 5.373 2000.000 1.351
6 150.00 900.00 349 535 1 0.000 5.373 2000.000 1.351
7 175.00 900.00 229 486 0 0.000 5.373 2000.000 1.351
8 200.00 900.00 174 471 2 0.000 5.373 2000.000 1.351
9 225.00 900.00 138 478 0 0.000 5.373 2000.000 1.351
10 250.00 900.00 149 543 1 0.000 5.373 2000.000 1.351
11 275.00 900.00 191 568 1 0.000 5.373 2000.000 1.351
12 300.00 900.00 223 471 1 0.000 5.373 2000.000 1.351
13 325.00 900.00 199 409 0 0.000 5.373 2000.000 1.351
14 350.00 900.00 156 350 0 0.000 5.373 2000.000 1.351
15 375.00 900.00 146 264 0 0.000 5.373 2000.000 1.351
16 400.00 900.00 147 295 1 0.000 5.373 2000.000 1.351
17 425.00 900.00 204 309 1 0.000 5.373 2000.000 1.351
18 450.00 900.00 326 290 0 0.000 5.373 2000.000 1.351
19 475.00 900.00 337 308 0 0.000 5.373 2000.000 1.351
20 500.00 900.00 388 262 0 0.000 5.373 2000.000 1.351
21 525.00 900.00 397 309 2 0.000 5.373 2000.000 1.351
22 550.00 900.00 408 402 0 0.000 5.373 2000.000 1.351
23 575.00 900.00 394 541 1 0.000 5.373 2000.000 1.351
24 600.00 900.00 383 548 2 0.000 5.373 2000.000 1.351
25 625.00 900.00 369 537 1 0.000 5.373 2000.000 1.351
26 650.00 900.00 322 503 1 0.000 5.373 2000.000 1.351
27 675.00 900.00 240 508 0 0.000 5.373 2000.000 1.351
28 700.00 900.00 175 480 0 0.000 5.373 2000.000 1.351
29 725.00 900.00 139 539 1 0.000 5.373 2000.000 1.351
30 750.00 900.00 138 561 3 0.000 5.373 2000.000 1.351
31 775.00 900.00 196 601 1 0.000 5.373 2000.000 1.351
32 800.00 900.00 216 528 0 0.000 5.373 2000.000 1.351
33 825.00 900.00 210 421 1 0.000 5.373 2000.000 1.351
34 850.00 900.00 167 312 4 0.000 5.373 2000.000 1.351
35 875.00 900.00 134 283 1 0.000 5.373 2000.000 1.351
36 900.00 900.00 150 283 0 0.000 5.373 2000.000 1.351
37 925.00 900.00 239 315 5 0.000 5.373 2000.000 1.351
38 950.00 900.00 314 295 0 0.000 5.373 2000.000 1.351
39 975.00 900.00 407 300 0 0.000 5.373 2000.000 1.351
