# BinNR microsec tot-time (s)  O-Beam H-beam AUX Ampl(V) f(Hz) phase(deg) chi(pos)
0 0.00 1200.00 176 766 6 0.000 5.373 2000.000 0.363
1 25.00 1200.00 204 819 0 0.000 5.373 2000.000 0.363
2 50.00 1200.00 216 706 1 0.000 5.373 2000.000 0.363
3 75.00 1200.00 201 610 1 0.000 5.373 2000.000 0.363
4 100.00 1200.00 194 577 2 0.000 5.373 2000.000 0.363
5 125.00 1200.00 211 617 1 0.000 5.373 2000.000 0.363
6 150.00 1200.00 263 611 4 0.000 5.373 2000.000 0.363
7 175.00 1200.00 299 628 1 0.000 5.373 2000.000 0.363
8 200.00 1200.00 400 591 2 0.000 5.373 2000.000 0.363
9 225.00 1200.00 422 594 6 0.000 5.373 2000.000 0.363
10 250.00 1200.00 418 612 1 0.000 5.373 2000.000 0.363
11 275.00 1200.00 380 543 0 0.000 5.373 2000.000 0.363
12 300.00 1200.00 389 652 4 0.000 5.373 2000.000 0.363
13 325.00 1200.00 401 744 0 0.000 5.373 2000.000 0.363
14 350.00 1200.00 399 818 4 0.000 5.373 2000.000 0.363
15 375.00 1200.00 478 835 0 0.000 5.373 2000.000 0.363
16 400.00 1200.00 421 776 5 0.000 5.373 2000.000 0.363
17 425.00 1200.00 333 769 2 0.000 5.373 2000.000 0.363
18 450.00 1200.00 236 836 4 0.000 5.373 2000.000 0.363
19 475.00 1200.00 205 820 6 0.000 5.373 2000.000 0.363
20 500.00 1200.00 198 825 1 0.000 5.373 2000.000 0.363
21 525.00 1200.00 209 810 5 0.000 5.373 2000.000 0.363
22 550.00 1200.00 214 679 5 0.000 5.373 2000.000 0.363
23 575.00 1200.00 188 657 2 0.000 5.373 2000.000 0.363
24 600.00 1200.00 224 623 1 0.000 5.373 2000.000 0.363
25 625.00 1200.00 190 609 1 0.000 5.373 2000.000 0.363
26 650.00 1200.00 250 608 5 0.000 5.373 2000.000 0.363
27 675.00 1200.00 356 605 3 0.000 5.373 2000.000 0.363
28 700.00 1200.00 408 647 2 0.000 5.373 2000.000 0.363
29 725.00 1200.00 431 633 1 0.000 5.373 2000.000 0.363
30 750.00 1200.00 422 597 3 0.000 5.373 2000.000 0.363
31 775.00 1200.00 393 597 3 0.000 5.373 2000.000 0.363
32 800.00 1200.00 371 673 2 0.000 5.373 2000.000 0.363
33 825.00 1200.00 377 701 5 0.000 5.373 2000.000 0.363
34 850.00 1200.00 416 783 1 0.000 5.373 2000.000 0.363
35 875.00 1200.00 428 814 3 0.000 5.373 2000.000 0.363
36 900.00 1200.00 414 835 3 0.000 5.373 2000.000 0.363
37 925.00 1200.00 361 799 1 0.000 5.373 2000.000 0.363
38 950.00 1200.00 267 802 3 0.000 5.373 2000.000 0.363
39 975.00 1200.00 215 845 0 0.000 5.373 2000.000 0.363
