# BinNR microsec tot-time (s)  O-Beam H-beam AUX Ampl(V) f(Hz) phase(deg) chi(pos)
0 0.00 1200.00 251 812 2 0.000 5.373 2000.000 0.077
1 25.00 1200.00 291 856 1 0.000 5.373 2000.000 0.077
2 50.00 1200.00 328 805 3 0.000 5.373 2000.000 0.077
3 75.00 1200.00 303 714 2 0.000 5.373 2000.000 0.077
4 100.00 1200.00 251 679 4 0.000 5.373 2000.000 0.077
5 125.00 1200.00 195 601 1 0.000 5.373 2000.000 0.077
6 150.00 1200.00 172 554 1 0.000 5.373 2000.000 0.077
7 175.00 1200.00 235 558 3 0.000 5.373 2000.000 0.077
8 200.00 1200.00 335 560 1 0.000 5.373 2000.000 0.077
9 225.00 1200.00 388 576 0 0.000 5.373 2000.000 0.077
10 250.00 1200.00 416 616 5 0.000 5.373 2000.000 0.077
11 275.00 1200.00 430 652 0 0.000 5.373 2000.000 0.077
12 300.00 1200.00 406 712 2 0.000 5.373 2000.000 0.077
13 325.00 1200.00 421 855 1 0.000 5.373 2000.000 0.077
14 350.00 1200.00 435 885 0 0.000 5.373 2000.000 0.077
15 375.00 1200.00 378 831 1 0.000 5.373 2000.000 0.077
16 400.00 1200.00 338 755 1 0.000 5.373 2000.000 0.077
17 425.00 1200.00 197 748 0 0.000 5.373 2000.000 0.077
18 450.00 1200.00 186 772 2 0.000 5.373 2000.000 0.077
19 475.00 1200.00 196 766 1 0.000 5.373 2000.000 0.077
20 500.00 1200.00 233 821 1 0.000 5.373 2000.000 0.077
21 525.00 1200.00 286 820 4 0.000 5.373 2000.000 0.077
22 550.00 1200.00 341 806 2 0.000 5.373 2000.000 0.077
23 575.00 1200.00 258 729 3 0.000 5.373 2000.000 0.077
24 600.00 1200.00 268 679 5 0.000 5.373 2000.000 0.077
25 625.00 1200.00 181 628 6 0.000 5.373 2000.000 0.077
26 650.00 1200.00 178 575 3 0.000 5.373 2000.000 0.077
27 675.00 1200.00 231 536 6 0.000 5.373 2000.000 0.077
28 700.00 1200.00 281 552 7 0.000 5.373 2000.000 0.077
29 725.00 1200.00 408 566 3 0.000 5.373 2000.000 0.077
30 750.00 1200.00 457 617 4 0.000 5.373 2000.000 0.077
31 775.00 1200.00 433 668 2 0.000 5.373 2000.000 0.077
32 800.00 1200.00 466 753 0 0.000 5.373 2000.000 0.077
33 825.00 1200.00 431 811 7 0.000 5.373 2000.000 0.077
34 850.00 1200.00 395 855 1 0.000 5.373 2000.000 0.077
35 875.00 1200.00 408 788 3 0.000 5.373 2000.000 0.077
36 900.00 1200.00 333 735 2 0.000 5.373 2000.000 0.077
37 925.00 1200.00 225 714 4 0.000 5.373 2000.000 0.077
38 950.00 1200.00 205 749 6 0.000 5.373 2000.000 0.077
39 975.00 1200.00 176 729 3 0.000 5.373 2000.000 0.077
