# BinNR microsec tot-time (s)  O-Beam H-beam AUX Ampl(V) f(Hz) phase(deg) chi(pos)
0 0.00 1200.00 369 667 2 0.000 5.373 2000.000 1.077
1 25.00 1200.00 296 606 3 0.000 5.373 2000.000 1.077
2 50.00 1200.00 297 599 4 0.000 5.373 2000.000 1.077
3 75.00 1200.00 333 700 4 0.000 5.373 2000.000 1.077
4 100.00 1200.00 354 735 5 0.000 5.373 2000.000 1.077
5 125.00 1200.00 440 791 4 0.000 5.373 2000.000 1.077
6 150.00 1200.00 452 837 2 0.000 5.373 2000.000 1.077
7 175.00 1200.00 383 845 2 0.000 5.373 2000.000 1.077
8 200.00 1200.00 295 833 4 0.000 5.373 2000.000 1.077
9 225.00 1200.00 231 809 1 0.000 5.373 2000.000 1.077
10 250.00 1200.00 201 798 5 0.000 5.373 2000.000 1.077
11 275.00 1200.00 200 751 5 0.000 5.373 2000.000 1.077
12 300.00 1200.00 185 659 3 0.000 5.373 2000.000 1.077
13 325.00 1200.00 210 603 1 0.000 5.373 2000.000 1.077
14 350.00 1200.00 177 654 5 0.000 5.373 2000.000 1.077
15 375.00 1200.00 241 607 3 0.000 5.373 2000.000 1.077
16 400.00 1200.00 283 682 5 0.000 5.373 2000.000 1.077
17 425.00 1200.00 393 695 4 0.000 5.373 2000.000 1.077
18 450.00 1200.00 405 721 3 0.000 5.373 2000.000 1.077
19 475.00 1200.00 388 656 0 0.000 5.373 2000.000 1.077
20 500.00 1200.00 351 594 2 0.000 5.373 2000.000 1.077
21 525.00 1200.00 342 601 3 0.000 5.373 2000.000 1.077
22 550.00 1200.00 315 643 2 0.000 5.373 2000.000 1.077
23 575.00 1200.00 344 644 2 0.000 5.373 2000.000 1.077
24 600.00 1200.00 389 759 0 0.000 5.373 2000.000 1.077
25 625.00 1200.00 395 820 3 0.000 5.373 2000.000 1.077
26 650.00 1200.00 403 874 2 0.000 5.373 2000.000 1.077
27 675.00 1200.00 386 837 0 0.000 5.373 2000.000 1.077
28 700.00 1200.00 324 844 5 0.000 5.373 2000.000 1.077
29 725.00 1200.00 245 850 1 0.000 5.373 2000.000 1.077
30 750.00 1200.00 228 795 7 0.000 5.373 2000.000 1.077
31 775.00 1200.00 210 800 4 0.000 5.373 2000.000 1.077
32 800.00 1200.00 206 633 4 0.000 5.373 2000.000 1.077
33 825.00 1200.00 188 589 5 0.000 5.373 2000.000 1.077
34 850.00 1200.00 210 587 1 0.000 5.373 2000.000 1.077
35 875.00 1200.00 238 662 4 0.000 5.373 2000.000 1.077
36 900.00 1200.00 306 658 3 0.000 5.373 2000.000 1.077
37 925.00 1200.00 419 754 1 0.000 5.373 2000.000 1.077
38 950.00 1200.00 431 709 1 0.000 5.373 2000.000 1.077
39 975.00 1200.00 428 748 3 0.000 5.373 2000.000 1.077
