# BinNR microsec tot-time (s)  O-Beam H-beam AUX Ampl(V) f(Hz) phase(deg) chi(pos)
0 0.00 1200.00 362 612 3 0.000 5.373 2000.000 1.208
1 25.00 1200.00 384 619 1 0.000 5.373 2000.000 1.208
2 50.00 1200.00 365 655 5 0.000 5.373 2000.000 1.208
3 75.00 1200.00 350 706 2 0.000 5.373 2000.000 1.208
4 100.00 1200.00 370 766 1 0.000 5.373 2000.000 1.208
5 125.00 1200.00 423 824 1 0.000 5.373 2000.000 1.208
6 150.00 1200.00 404 817 3 0.000 5.373 2000.000 1.208
7 175.00 1200.00 360 762 0 0.000 5.373 2000.000 1.208
8 200.00 1200.00 256 812 2 0.000 5.373 2000.000 1.208
9 225.00 1200.00 229 877 2 0.000 5.373 2000.000 1.208
10 250.00 1200.00 191 833 5 0.000 5.373 2000.000 1.208
11 275.00 1200.00 210 762 2 0.000 5.373 2000.000 1.208
12 300.00 1200.00 206 704 0 0.000 5.373 2000.000 1.208
13 325.00 1200.00 199 612 3 0.000 5.373 2000.000 1.208
14 350.00 1200.00 199 586 1 0.000 5.373 2000.000 1.208
15 375.00 1200.00 188 617 1 0.000 5.373 2000.000 1.208
16 400.00 1200.00 221 623 3 0.000 5.373 2000.000 1.208
17 425.00 1200.00 371 651 3 0.000 5.373 2000.000 1.208
18 450.00 1200.00 376 639 1 0.000 5.373 2000.000 1.208
19 475.00 1200.00 423 637 6 0.000 5.373 2000.000 1.208
20 500.00 1200.00 370 604 3 0.000 5.373 2000.000 1.208
21 525.00 1200.00 356 602 2 0.000 5.373 2000.000 1.208
22 550.00 1200.00 343 632 1 0.000 5.373 2000.000 1.208
23 575.00 1200.00 400 717 2 0.000 5.373 2000.000 1.208
24 600.00 1200.00 379 792 1 0.000 5.373 2000.000 1.208
25 625.00 1200.00 410 843 1 0.000 5.373 2000.000 1.208
26 650.00 1200.00 382 868 3 0.000 5.373 2000.000 1.208
27 675.00 1200.00 314 775 0 0.000 5.373 2000.000 1.208
28 700.00 1200.00 278 842 3 0.000 5.373 2000.000 1.208
29 725.00 1200.00 205 797 4 0.000 5.373 2000.000 1.208
30 750.00 1200.00 199 812 1 0.000 5.373 2000.000 1.208
31 775.00 1200.00 179 762 2 0.000 5.373 2000.000 1.208
32 800.00 1200.00 197 728 8 0.000 5.373 2000.000 1.208
33 825.00 1200.00 189 673 2 0.000 5.373 2000.000 1.208
34 850.00 1200.00 190 614 4 0.000 5.373 2000.000 1.208
35 875.00 1200.00 214 595 1 0.000 5.373 2000.000 1.208
36 900.00 1200.00 249 644 3 0.000 5.373 2000.000 1.208
37 925.00 1200.00 303 688 1 0.000 5.373 2000.000 1.208
38 950.00 1200.00 419 661 5 0.000 5.373 2000.000 1.208
39 975.00 1200.00 427 606 4 0.000 5.373 2000.000 1.208
