# BinNR microsec tot-time (s)  O-Beam H-beam AUX Ampl(V) f(Hz) phase(deg) chi(pos)
0 0.00 1200.00 195 863 1 0.000 5.373 2000.000 -1.373
1 25.00 1200.00 148 732 4 0.000 5.373 2000.000 -1.373
2 50.00 1200.00 178 639 0 0.000 5.373 2000.000 -1.373
3 75.00 1200.00 176 587 7 0.000 5.373 2000.000 -1.373
4 100.00 1200.00 183 576 2 0.000 5.373 2000.000 -1.373
5 125.00 1200.00 249 609 5 0.000 5.373 2000.000 -1.373
6 150.00 1200.00 311 672 2 0.000 5.373 2000.000 -1.373
7 175.00 1200.00 464 683 5 0.000 5.373 2000.000 -1.373
8 200.00 1200.00 458 744 1 0.000 5.373 2000.000 -1.373
9 225.00 1200.00 437 728 2 0.000 5.373 2000.000 -1.373
10 250.00 1200.00 365 636 1 0.000 5.373 2000.000 -1.373
11 275.00 1200.00 303 566 3 0.000 5.373 2000.000 -1.373
12 300.00 1200.00 301 608 1 0.000 5.373 2000.000 -1.373
13 325.00 1200.00 294 663 2 0.000 5.373 2000.000 -1.373
14 350.00 1200.00 351 726 2 0.000 5.373 2000.000 -1.373
15 375.00 1200.00 425 807 1 0.000 5.373 2000.000 -1.373
16 400.00 1200.00 466 801 4 0.000 5.373 2000.000 -1.373
17 425.00 1200.00 439 855 7 0.000 5.373 2000.000 -1.373
18 450.00 1200.00 381 895 0 0.000 5.373 2000.000 -1.373
19 475.00 1200.00 242 869 3 0.000 5.373 2000.000 -1.373
20 500.00 1200.00 211 822 3 0.000 5.373 2000.000 -1.373
21 525.00 1200.00 185 727 7 0.000 5.373 2000.000 -1.373
22 550.00 1200.00 191 660 1 0.000 5.373 2000.000 -1.373
23 575.00 1200.00 175 580 4 0.000 5.373 2000.000 -1.373
24 600.00 1200.00 172 562 4 0.000 5.373 2000.000 -1.373
25 625.00 1200.00 246 670 3 0.000 5.373 2000.000 -1.373
26 650.00 1200.00 323 677 3 0.000 5.373 2000.000 -1.373
27 675.00 1200.00 432 720 7 0.000 5.373 2000.000 -1.373
28 700.00 1200.00 452 735 4 0.000 5.373 2000.000 -1.373
29 725.00 1200.00 382 731 3 0.000 5.373 2000.000 -1.373
30 750.00 1200.00 368 655 2 0.000 5.373 2000.000 -1.373
31 775.00 1200.00 304 570 5 0.000 5.373 2000.000 -1.373
32 800.00 1200.00 269 608 1 0.000 5.373 2000.000 -1.373
33 825.00 1200.00 293 710 3 0.000 5.373 2000.000 -1.373
34 850.00 1200.00 315 756 5 0.000 5.373 2000.000 -1.373
35 875.00 1200.00 385 770 1 0.000 5.373 2000.000 -1.373
36 900.00 1200.00 457 871 3 0.000 5.373 2000.000 -1.373
37 925.00 1200.00 442 873 1 0.000 5.373 2000.000 -1.373
38 950.00 1200.00 358 872 0 0.000 5.373 2000.000 -1.373
39 975.00 1200.00 292 870 3 0.000 5.373 2000.000 -1.373
