# BinNR microsec tot-time (s)  O-Beam H-beam AUX Ampl(V) f(Hz) phase(deg) chi(pos)
0 0.00 900.00 268 574 0 0.000 5.373 2000.000 -0.802
1 25.00 900.00 318 675 0 0.000 5.373 2000.000 -0.802
2 50.00 900.00 388 651 4 0.000 5.373 2000.000 -0.802
3 75.00 900.00 349 573 4 0.000 5.373 2000.000 -0.802
4 100.00 900.00 293 487 4 0.000 5.373 2000.000 -0.802
5 125.00 900.00 185 384 2 0.000 5.373 2000.000 -0.802
6 150.00 900.00 131 319 3 0.000 5.373 2000.000 -0.802
7 175.00 900.00 150 335 5 0.000 5.373 2000.000 -0.802
8 200.00 900.00 258 299 0 0.000 5.373 2000.000 -0.802
9 225.00 900.00 387 309 2 0.000 5.373 2000.000 -0.802
10 250.00 900.00 459 396 1 0.000 5.373 2000.000 -0.802
11 275.00 900.00 489 475 1 0.000 5.373 2000.000 -0.802
12 300.00 900.00 479 605 2 0.000 5.373 2000.000 -0.802
13 325.00 900.00 490 690 2 0.000 5.373 2000.000 -0.802
14 350.00 900.00 453 671 4 0.000 5.373 2000.000 -0.802
15 375.00 900.00 375 650 2 0.000 5.373 2000.000 -0.802
16 400.00 900.00 253 510 5 0.000 5.373 2000.000 -0.802
17 425.00 900.00 138 471 0 0.000 5.373 2000.000 -0.802
18 450.00 900.00 132 439 1 0.000 5.373 2000.000 -0.802
19 475.00 900.00 183 544 2 0.000 5.373 2000.000 -0.802
20 500.00 900.00 252 596 4 0.000 5.373 2000.000 -0.802
21 525.00 900.00 307 698 5 0.000 5.373 2000.000 -0.802
22 550.00 900.00 372 660 1 0.000 5.373 2000.000 -0.802
23 575.00 900.00 357 593 0 0.000 5.373 2000.000 -0.802
24 600.00 900.00 283 507 3 0.000 5.373 2000.000 -0.802
25 625.00 900.00 168 398 2 0.000 5.373 2000.000 -0.802
26 650.00 900.00 120 333 5 0.000 5.373 2000.000 -0.802
27 675.00 900.00 157 319 5 0.000 5.373 2000.000 -0.802
28 700.00 900.00 255 312 4 0.000 5.373 2000.000 -0.802
29 725.00 900.00 418 338 1 0.000 5.373 2000.000 -0.802
30 750.00 900.00 460 408 3 0.000 5.373 2000.000 -0.802
31 775.00 900.00 532 501 3 0.000 5.373 2000.000 -0.802
32 800.00 900.00 536 629 2 0.000 5.373 2000.000 -0.802
33 825.00 900.00 461 695 3 0.000 5.373 2000.000 -0.802
34 850.00 900.00 429 652 3 0.000 5.373 2000.000 -0.802
35 875.00 900.00 420 654 4 0.000 5.373 2000.000 -0.802
36 900.00 900.00 271 501 2 0.000 5.373 2000.000 -0.802
37 925.00 900.00 142 439 2 0.000 5.373 2000.000 -0.802
38 950.00 900.00 154 464 1 0.000 5.373 2000.000 -0.802
39 975.00 900.00 200 541 4 0.000 5.373 2000.000 -0.802
