# BinNR microsec tot-time (s)  O-Beam H-beam AUX Ampl(V) f(Hz) phase(deg) chi(pos)
0 0.00 900.00 263 648 2 0.000 5.373 2000.000 1.351
1 25.00 900.00 304 693 3 0.000 5.373 2000.000 1.351
2 50.00 900.00 295 692 5 0.000 5.373 2000.000 1.351
3 75.00 900.00 277 591 2 0.000 5.373 2000.000 1.351
4 100.00 900.00 255 472 5 0.000 5.373 2000.000 1.351
5 125.00 900.00 175 378 4 0.000 5.373 2000.000 1.351
6 150.00 900.00 123 335 2 0.000 5.373 2000.000 1.351
7 175.00 900.00 178 303 2 0.000 5.373 2000.000 1.351
8 200.00 900.00 265 278 3 0.000 5.373 2000.000 1.351
9 225.00 900.00 403 347 4 0.000 5.373 2000.000 1.351
10 250.00 900.00 492 392 2 0.000 5.373 2000.000 1.351
11 275.00 900.00 500 456 2 0.000 5.373 2000.000 1.351
12 300.00 900.00 471 610 3 0.000 5.373 2000.000 1.351
13 325.00 900.00 471 676 2 0.000 5.373 2000.000 1.351
14 350.00 900.00 478 669 1 0.000 5.373 2000.000 1.351
15 375.00 900.00 417 603 3 0.000 5.373 2000.000 1.351
16 400.00 900.00 333 534 2 0.000 5.373 2000.000 1.351
17 425.00 900.00 189 503 5 0.000 5.373 2000.000 1.351
18 450.00 900.00 112 479 3 0.000 5.373 2000.000 1.351
19 475.00 900.00 163 512 1 0.000 5.373 2000.000 1.351
20 500.00 900.00 219 650 2 0.000 5.373 2000.000 1.351
21 525.00 900.00 260 690 3 0.000 5.373 2000.000 1.351
22 550.00 900.00 316 668 1 0.000 5.373 2000.000 1.351
23 575.00 900.00 325 602 3 0.000 5.373 2000.000 1.351
24 600.00 900.00 218 426 2 0.000 5.373 2000.000 1.351
25 625.00 900.00 149 361 2 0.000 5.373 2000.000 1.351
26 650.00 900.00 141 307 1 0.000 5.373 2000.000 1.351
27 675.00 900.00 165 326 2 0.000 5.373 2000.000 1.351
28 700.00 900.00 276 329 1 0.000 5.373 2000.000 1.351
29 725.00 900.00 373 317 2 0.000 5.373 2000.000 1.351
30 750.00 900.00 483 359 2 0.000 5.373 2000.000 1.351
31 775.00 900.00 496 486 3 0.000 5.373 2000.000 1.351
32 800.00 900.00 500 592 1 0.000 5.373 2000.000 1.351
33 825.00 900.00 504 714 1 0.000 5.373 2000.000 1.351
34 850.00 900.00 487 712 1 0.000 5.373 2000.000 1.351
35 875.00 900.00 414 604 1 0.000 5.373 2000.000 1.351
36 900.00 900.00 311 553 5 0.000 5.373 2000.000 1.351
37 925.00 900.00 170 495 1 0.000 5.373 2000.000 1.351
38 950.00 900.00 118 542 3 0.000 5.373 2000.000 1.351
39 975.00 900.00 150 553 0 0.000 5.373 2000.000 1.351
