# BinNR microsec tot-time (s)  O-Beam H-beam AUX Ampl(V) f(Hz) phase(deg) chi(pos)
0 0.00 900.00 111 683 1 0.000 5.373 2000.000 -0.363
1 25.00 900.00 111 654 5 0.000 5.373 2000.000 -0.363
2 50.00 900.00 148 520 2 0.000 5.373 2000.000 -0.363
3 75.00 900.00 119 409 2 0.000 5.373 2000.000 -0.363
4 100.00 900.00 112 321 3 0.000 5.373 2000.000 -0.363
5 125.00 900.00 138 326 5 0.000 5.373 2000.000 -0.363
6 150.00 900.00 204 363 3 0.000 5.373 2000.000 -0.363
7 175.00 900.00 370 437 1 0.000 5.373 2000.000 -0.363
8 200.00 900.00 480 411 0 0.000 5.373 2000.000 -0.363
9 225.00 900.00 508 384 2 0.000 5.373 2000.000 -0.363
10 250.00 900.00 476 335 1 0.000 5.373 2000.000 -0.363
11 275.00 900.00 413 287 4 0.000 5.373 2000.000 -0.363
12 300.00 900.00 373 396 3 0.000 5.373 2000.000 -0.363
13 325.00 900.00 422 510 1 0.000 5.373 2000.000 -0.363
14 350.00 900.00 498 696 2 0.000 5.373 2000.000 -0.363
15 375.00 900.00 510 715 2 0.000 5.373 2000.000 -0.363
16 400.00 900.00 457 716 1 0.000 5.373 2000.000 -0.363
17 425.00 900.00 380 637 3 0.000 5.373 2000.000 -0.363
18 450.00 900.00 231 694 1 0.000 5.373 2000.000 -0.363
19 475.00 900.00 149 677 0 0.000 5.373 2000.000 -0.363
20 500.00 900.00 131 710 3 0.000 5.373 2000.000 -0.363
21 525.00 900.00 132 649 3 0.000 5.373 2000.000 -0.363
22 550.00 900.00 140 512 1 0.000 5.373 2000.000 -0.363
23 575.00 900.00 118 380 5 0.000 5.373 2000.000 -0.363
24 600.00 900.00 116 306 3 0.000 5.373 2000.000 -0.363
25 625.00 900.00 133 323 0 0.000 5.373 2000.000 -0.363
26 650.00 900.00 226 375 4 0.000 5.373 2000.000 -0.363
27 675.00 900.00 370 419 0 0.000 5.373 2000.000 -0.363
28 700.00 900.00 469 446 2 0.000 5.373 2000.000 -0.363
29 725.00 900.00 495 415 2 0.000 5.373 2000.000 -0.363
30 750.00 900.00 422 312 2 0.000 5.373 2000.000 -0.363
31 775.00 900.00 426 304 2 0.000 5.373 2000.000 -0.363
32 800.00 900.00 365 412 0 0.000 5.373 2000.000 -0.363
33 825.00 900.00 468 548 1 0.000 5.373 2000.000 -0.363
34 850.00 900.00 470 629 0 0.000 5.373 2000.000 -0.363
35 875.00 900.00 509 676 3 0.000 5.373 2000.000 -0.363
36 900.00 900.00 518 722 3 0.000 5.373 2000.000 -0.363
37 925.00 900.00 360 655 4 0.000 5.373 2000.000 -0.363
38 950.00 900.00 245 694 1 0.000 5.373 2000.000 -0.363
39 975.00 900.00 145 646 0 0.000 5.373 2000.000 -0.363
