# BinNR microsec tot-time (s)  O-Beam H-beam AUX Ampl(V) f(Hz) phase(deg) chi(pos)
0 0.00 900.00 304 533 2 0.000 5.373 2000.000 1.219
1 25.00 900.00 374 654 2 0.000 5.373 2000.000 1.219
2 50.00 900.00 411 720 2 0.000 5.373 2000.000 1.219
3 75.00 900.00 371 637 4 0.000 5.373 2000.000 1.219
4 100.00 900.00 317 557 1 0.000 5.373 2000.000 1.219
5 125.00 900.00 218 442 0 0.000 5.373 2000.000 1.219
6 150.00 900.00 147 322 3 0.000 5.373 2000.000 1.219
7 175.00 900.00 137 331 0 0.000 5.373 2000.000 1.219
8 200.00 900.00 206 312 3 0.000 5.373 2000.000 1.219
9 225.00 900.00 313 365 1 0.000 5.373 2000.000 1.219
10 250.00 900.00 408 432 2 0.000 5.373 2000.000 1.219
11 275.00 900.00 489 517 4 0.000 5.373 2000.000 1.219
12 300.00 900.00 491 671 3 0.000 5.373 2000.000 1.219
13 325.00 900.00 505 695 4 0.000 5.373 2000.000 1.219
14 350.00 900.00 439 637 2 0.000 5.373 2000.000 1.219
15 375.00 900.00 367 534 2 0.000 5.373 2000.000 1.219
16 400.00 900.00 206 475 1 0.000 5.373 2000.000 1.219
17 425.00 900.00 154 397 2 0.000 5.373 2000.000 1.219
18 450.00 900.00 133 431 1 0.000 5.373 2000.000 1.219
19 475.00 900.00 246 460 1 0.000 5.373 2000.000 1.219
20 500.00 900.00 293 511 2 0.000 5.373 2000.000 1.219
21 525.00 900.00 390 675 1 0.000 5.373 2000.000 1.219
22 550.00 900.00 404 719 1 0.000 5.373 2000.000 1.219
23 575.00 900.00 367 614 3 0.000 5.373 2000.000 1.219
24 600.00 900.00 336 560 1 0.000 5.373 2000.000 1.219
25 625.00 900.00 228 445 4 0.000 5.373 2000.000 1.219
26 650.00 900.00 152 361 3 0.000 5.373 2000.000 1.219
27 675.00 900.00 129 321 3 0.000 5.373 2000.000 1.219
28 700.00 900.00 208 323 1 0.000 5.373 2000.000 1.219
29 725.00 900.00 359 355 2 0.000 5.373 2000.000 1.219
30 750.00 900.00 425 448 1 0.000 5.373 2000.000 1.219
31 775.00 900.00 450 526 2 0.000 5.373 2000.000 1.219
32 800.00 900.00 475 674 3 0.000 5.373 2000.000 1.219
33 825.00 900.00 492 690 3 0.000 5.373 2000.000 1.219
34 850.00 900.00 450 612 2 0.000 5.373 2000.000 1.219
35 875.00 900.00 374 517 3 0.000 5.373 2000.000 1.219
36 900.00 900.00 193 461 1 0.000 5.373 2000.000 1.219
37 925.00 900.00 156 458 4 0.000 5.373 2000.000 1.219
38 950.00 900.00 131 429 3 0.000 5.373 2000.000 1.219
39 975.00 900.00 245 518 0 0.000 5.373 2000.000 1.219
