# BinNR microsec tot-time (s)  O-Beam H-beam AUX Ampl(V) f(Hz) phase(deg) chi(pos)
0 0.00 900.00 152 695 1 0.000 5.373 2000.000 -0.505
1 25.00 900.00 168 698 2 0.000 5.373 2000.000 -0.505
2 50.00 900.00 169 596 2 0.000 5.373 2000.000 -0.505
3 75.00 900.00 178 471 1 0.000 5.373 2000.000 -0.505
4 100.00 900.00 155 349 0 0.000 5.373 2000.000 -0.505
5 125.00 900.00 143 336 1 0.000 5.373 2000.000 -0.505
6 150.00 900.00 180 360 2 0.000 5.373 2000.000 -0.505
7 175.00 900.00 280 381 2 0.000 5.373 2000.000 -0.505
8 200.00 900.00 406 354 1 0.000 5.373 2000.000 -0.505
9 225.00 900.00 487 360 1 0.000 5.373 2000.000 -0.505
10 250.00 900.00 491 361 3 0.000 5.373 2000.000 -0.505
11 275.00 900.00 445 400 0 0.000 5.373 2000.000 -0.505
12 300.00 900.00 481 507 3 0.000 5.373 2000.000 -0.505
13 325.00 900.00 461 557 3 0.000 5.373 2000.000 -0.505
14 350.00 900.00 482 649 2 0.000 5.373 2000.000 -0.505
15 375.00 900.00 513 724 1 0.000 5.373 2000.000 -0.505
16 400.00 900.00 424 654 2 0.000 5.373 2000.000 -0.505
17 425.00 900.00 296 629 1 0.000 5.373 2000.000 -0.505
18 450.00 900.00 190 663 2 0.000 5.373 2000.000 -0.505
19 475.00 900.00 125 685 1 0.000 5.373 2000.000 -0.505
20 500.00 900.00 134 639 0 0.000 5.373 2000.000 -0.505
21 525.00 900.00 140 637 3 0.000 5.373 2000.000 -0.505
22 550.00 900.00 184 575 1 0.000 5.373 2000.000 -0.505
23 575.00 900.00 162 472 1 0.000 5.373 2000.000 -0.505
24 600.00 900.00 152 343 1 0.000 5.373 2000.000 -0.505
25 625.00 900.00 134 300 3 0.000 5.373 2000.000 -0.505
26 650.00 900.00 162 336 4 0.000 5.373 2000.000 -0.505
27 675.00 900.00 292 352 2 0.000 5.373 2000.000 -0.505
28 700.00 900.00 412 371 0 0.000 5.373 2000.000 -0.505
29 725.00 900.00 498 336 2 0.000 5.373 2000.000 -0.505
30 750.00 900.00 499 320 4 0.000 5.373 2000.000 -0.505
31 775.00 900.00 476 369 1 0.000 5.373 2000.000 -0.505
32 800.00 900.00 453 441 4 0.000 5.373 2000.000 -0.505
33 825.00 900.00 545 641 2 0.000 5.373 2000.000 -0.505
34 850.00 900.00 479 696 0 0.000 5.373 2000.000 -0.505
35 875.00 900.00 477 681 3 0.000 5.373 2000.000 -0.505
36 900.00 900.00 430 661 1 0.000 5.373 2000.000 -0.505
37 925.00 900.00 329 629 2 0.000 5.373 2000.000 -0.505
38 950.00 900.00 170 671 4 0.000 5.373 2000.000 -0.505
39 975.00 900.00 123 677 2 0.000 5.373 2000.000 -0.505
