# BinNR microsec tot-time (s)  O-Beam H-beam AUX Ampl(V) f(Hz) phase(deg) chi(pos)
0 0.00 900.00 450 310 4 0.000 5.373 2000.000 0.505
1 25.00 900.00 430 318 1 0.000 5.373 2000.000 0.505
2 50.00 900.00 405 425 4 0.000 5.373 2000.000 0.505
3 75.00 900.00 454 554 0 0.000 5.373 2000.000 0.505
4 100.00 900.00 434 638 1 0.000 5.373 2000.000 0.505
5 125.00 900.00 506 715 1 0.000 5.373 2000.000 0.505
6 150.00 900.00 445 690 7 0.000 5.373 2000.000 0.505
7 175.00 900.00 373 695 4 0.000 5.373 2000.000 0.505
8 200.00 900.00 222 642 1 0.000 5.373 2000.000 0.505
9 225.00 900.00 135 716 3 0.000 5.373 2000.000 0.505
10 250.00 900.00 121 733 2 0.000 5.373 2000.000 0.505
11 275.00 900.00 140 682 1 0.000 5.373 2000.000 0.505
12 300.00 900.00 155 486 4 0.000 5.373 2000.000 0.505
13 325.00 900.00 158 410 1 0.000 5.373 2000.000 0.505
14 350.00 900.00 123 312 1 0.000 5.373 2000.000 0.505
15 375.00 900.00 101 327 2 0.000 5.373 2000.000 0.505
16 400.00 900.00 229 358 0 0.000 5.373 2000.000 0.505
17 425.00 900.00 336 407 4 0.000 5.373 2000.000 0.505
18 450.00 900.00 442 437 1 0.000 5.373 2000.000 0.505
19 475.00 900.00 488 391 1 0.000 5.373 2000.000 0.505
20 500.00 900.00 524 336 3 0.000 5.373 2000.000 0.505
21 525.00 900.00 423 329 2 0.000 5.373 2000.000 0.505
22 550.00 900.00 421 399 2 0.000 5.373 2000.000 0.505
23 575.00 900.00 408 542 0 0.000 5.373 2000.000 0.505
24 600.00 900.00 426 665 2 0.000 5.373 2000.000 0.505
25 625.00 900.00 507 670 2 0.000 5.373 2000.000 0.505
26 650.00 900.00 476 633 1 0.000 5.373 2000.000 0.505
27 675.00 900.00 349 712 1 0.000 5.373 2000.000 0.505
28 700.00 900.00 213 683 1 0.000 5.373 2000.000 0.505
29 725.00 900.00 127 661 3 0.000 5.373 2000.000 0.505
30 750.00 900.00 130 655 1 0.000 5.373 2000.000 0.505
31 775.00 900.00 149 641 2 0.000 5.373 2000.000 0.505
32 800.00 900.00 153 539 1 0.000 5.373 2000.000 0.505
33 825.00 900.00 147 376 4 0.000 5.373 2000.000 0.505
34 850.00 900.00 125 331 3 0.000 5.373 2000.000 0.505
35 875.00 900.00 127 309 2 0.000 5.373 2000.000 0.505
36 900.00 900.00 215 356 2 0.000 5.373 2000.000 0.505
37 925.00 900.00 360 401 2 0.000 5.373 2000.000 0.505
38 950.00 900.00 473 418 3 0.000 5.373 2000.000 0.505
39 975.00 900.00 526 343 2 0.000 5.373 2000.000 0.505
