# BinNR microsec tot-time (s)  O-Beam AUX Ampl(V) f(Hz) phase(deg) chi(pos)
1 1.00 2276.22 544 1239 5.000 80000.000 0.000 0.527
2 2.00 2276.22 574 1314 5.000 80000.000 0.000 0.527
3 3.00 2276.22 580 1202 5.000 80000.000 0.000 0.527
4 4.00 2276.22 584 1371 5.000 80000.000 0.000 0.527
5 5.00 2276.22 607 1262 5.000 80000.000 0.000 0.527
6 6.00 2276.22 567 1339 5.000 80000.000 0.000 0.527
7 7.00 2276.22 599 1222 5.000 80000.000 0.000 0.527
8 8.00 2276.22 552 1312 5.000 80000.000 0.000 0.527
9 9.00 2276.22 550 1255 5.000 80000.000 0.000 0.527
10 10.00 2276.22 612 1351 5.000 80000.000 0.000 0.527
11 11.00 2276.22 609 1275 5.000 80000.000 0.000 0.527
12 12.00 2276.22 561 1400 5.000 80000.000 0.000 0.527
13 13.00 2276.22 519 1264 5.000 80000.000 0.000 0.527
14 14.00 2276.22 628 1376 5.000 80000.000 0.000 0.527
15 15.00 2276.22 579 1209 5.000 80000.000 0.000 0.527
16 16.00 2276.22 578 1301 5.000 80000.000 0.000 0.527
17 17.00 2276.22 623 1230 5.000 80000.000 0.000 0.527
18 18.00 2276.22 606 1298 5.000 80000.000 0.000 0.527
19 19.00 2276.22 548 1248 5.000 80000.000 0.000 0.527
20 20.00 2276.22 597 1300 5.000 80000.000 0.000 0.527
21 21.00 2276.22 574 1245 5.000 80000.000 0.000 0.527
22 22.00 2276.22 638 1338 5.000 80000.000 0.000 0.527
23 23.00 2276.22 585 1263 5.000 80000.000 0.000 0.527
24 24.00 2276.22 594 1281 5.000 80000.000 0.000 0.527
25 25.00 2276.22 585 1204 5.000 80000.000 0.000 0.527
26 26.00 2276.22 547 1394 5.000 80000.000 0.000 0.527
27 27.00 2276.22 557 1239 5.000 80000.000 0.000 0.527
28 28.00 2276.22 579 1330 5.000 80000.000 0.000 0.527
29 29.00 2276.22 536 1244 5.000 80000.000 0.000 0.527
30 30.00 2276.22 612 1368 5.000 80000.000 0.000 0.527
31 31.00 2276.22 612 1360 5.000 80000.000 0.000 0.527
32 32.00 2276.22 617 1292 5.000 80000.000 0.000 0.527
33 33.00 2276.22 590 1211 5.000 80000.000 0.000 0.527
34 34.00 2276.22 634 1350 5.000 80000.000 0.000 0.527
35 35.00 2276.22 587 1252 5.000 80000.000 0.000 0.527
36 36.00 2276.22 575 1293 5.000 80000.000 0.000 0.527
37 37.00 2276.22 575 1236 5.000 80000.000 0.000 0.527
38 38.00 2276.22 627 1255 5.000 80000.000 0.000 0.527
39 39.00 2276.22 544 1247 5.000 80000.000 0.000 0.527
40 40.00 2276.22 609 1298 5.000 80000.000 0.000 0.527
41 41.00 2276.22 574 1217 5.000 80000.000 0.000 0.527
42 42.00 2276.22 579 1305 5.000 80000.000 0.000 0.527
43 43.00 2276.22 610 1285 5.000 80000.000 0.000 0.527
44 44.00 2276.22 646 1325 5.000 80000.000 0.000 0.527
45 45.00 2276.22 584 1241 5.000 80000.000 0.000 0.527
46 46.00 2276.22 616 1371 5.000 80000.000 0.000 0.527
47 47.00 2276.22 599 1235 5.000 80000.000 0.000 0.527
48 48.00 2276.22 608 1340 5.000 80000.000 0.000 0.527
49 49.00 2276.22 552 1264 5.000 80000.000 0.000 0.527
50 50.00 2276.22 627 1316 5.000 80000.000 0.000 0.527
51 51.00 2276.22 555 1234 5.000 80000.000 0.000 0.527
52 52.00 2276.22 642 1336 5.000 80000.000 0.000 0.527
53 53.00 2276.22 588 1234 5.000 80000.000 0.000 0.527
54 54.00 2276.22 603 1331 5.000 80000.000 0.000 0.527
55 55.00 2276.22 593 1298 5.000 80000.000 0.000 0.527
56 56.00 2276.22 568 1297 5.000 80000.000 0.000 0.527
57 57.00 2276.22 558 1327 5.000 80000.000 0.000 0.527
58 58.00 2276.22 594 1367 5.000 80000.000 0.000 0.527
59 59.00 2276.22 545 1283 5.000 80000.000 0.000 0.527
60 60.00 2276.22 568 1331 5.000 80000.000 0.000 0.527
61 61.00 2276.22 546 1193 5.000 80000.000 0.000 0.527
62 62.00 2276.22 590 1340 5.000 80000.000 0.000 0.527
63 63.00 2276.22 608 1284 5.000 80000.000 0.000 0.527
64 64.00 2276.22 602 1257 5.000 80000.000 0.000 0.527
65 65.00 2276.22 571 1215 5.000 80000.000 0.000 0.527
66 66.00 2276.22 628 1361 5.000 80000.000 0.000 0.527
67 67.00 2276.22 551 1330 5.000 80000.000 0.000 0.527
68 68.00 2276.22 572 1293 5.000 80000.000 0.000 0.527
69 69.00 2276.22 577 1231 5.000 80000.000 0.000 0.527
70 70.00 2276.22 617 1284 5.000 80000.000 0.000 0.527
71 71.00 2276.22 550 1297 5.000 80000.000 0.000 0.527
72 72.00 2276.22 638 1314 5.000 80000.000 0.000 0.527
73 73.00 2276.22 584 1284 5.000 80000.000 0.000 0.527
74 74.00 2276.22 591 1355 5.000 80000.000 0.000 0.527
75 75.00 2276.22 597 1268 5.000 80000.000 0.000 0.527
76 76.00 2276.22 592 1299 5.000 80000.000 0.000 0.527
77 77.00 2276.22 558 1225 5.000 80000.000 0.000 0.527
78 78.00 2276.22 598 1328 5.000 80000.000 0.000 0.527
79 79.00 2276.22 575 1210 5.000 80000.000 0.000 0.527
80 80.00 2276.22 652 1302 5.000 80000.000 0.000 0.527
81 81.00 2276.22 605 1291 5.000 80000.000 0.000 0.527
82 82.00 2276.22 648 1255 5.000 80000.000 0.000 0.527
83 83.00 2276.22 576 1231 5.000 80000.000 0.000 0.527
84 84.00 2276.22 619 1325 5.000 80000.000 0.000 0.527
85 85.00 2276.22 584 1216 5.000 80000.000 0.000 0.527
86 86.00 2276.22 586 1352 5.000 80000.000 0.000 0.527
87 87.00 2276.22 568 1211 5.000 80000.000 0.000 0.527
88 88.00 2276.22 596 1340 5.000 80000.000 0.000 0.527
89 89.00 2276.22 590 1289 5.000 80000.000 0.000 0.527
90 90.00 2276.22 603 1361 5.000 80000.000 0.000 0.527
91 91.00 2276.22 540 1230 5.000 80000.000 0.000 0.527
92 92.00 2276.22 598 1309 5.000 80000.000 0.000 0.527
93 93.00 2276.22 572 1219 5.000 80000.000 0.000 0.527
94 94.00 2276.22 588 1353 5.000 80000.000 0.000 0.527
95 95.00 2276.22 596 1267 5.000 80000.000 0.000 0.527
96 96.00 2276.22 593 1286 5.000 80000.000 0.000 0.527
97 97.00 2276.22 581 1259 5.000 80000.000 0.000 0.527
98 98.00 2276.22 630 1359 5.000 80000.000 0.000 0.527
99 99.00 2276.22 585 1234 5.000 80000.000 0.000 0.527
100 100.00 2276.22 549 1318 5.000 80000.000 0.000 0.527
101 101.00 2276.22 573 1255 5.000 80000.000 0.000 0.527
102 102.00 2276.22 582 1267 5.000 80000.000 0.000 0.527
