# BinNR microsec tot-time (s)  O-Beam AUX Ampl(V) f(Hz) phase(deg) chi(pos)
1 1.00 300.00 63 261 5.000 90000.000 0.000 1.472
2 2.00 300.00 73 239 5.000 90000.000 0.000 1.472
3 3.00 300.00 58 217 5.000 90000.000 0.000 1.472
4 4.00 300.00 82 251 5.000 90000.000 0.000 1.472
5 5.00 300.00 79 222 5.000 90000.000 0.000 1.472
6 6.00 300.00 79 266 5.000 90000.000 0.000 1.472
7 7.00 300.00 79 244 5.000 90000.000 0.000 1.472
8 8.00 300.00 84 232 5.000 90000.000 0.000 1.472
9 9.00 300.00 69 246 5.000 90000.000 0.000 1.472
10 10.00 300.00 78 254 5.000 90000.000 0.000 1.472
11 11.00 300.00 77 235 5.000 90000.000 0.000 1.472
12 12.00 300.00 86 244 5.000 90000.000 0.000 1.472
13 13.00 300.00 77 234 5.000 90000.000 0.000 1.472
14 14.00 300.00 72 214 5.000 90000.000 0.000 1.472
15 15.00 300.00 63 238 5.000 90000.000 0.000 1.472
16 16.00 300.00 80 240 5.000 90000.000 0.000 1.472
17 17.00 300.00 66 248 5.000 90000.000 0.000 1.472
18 18.00 300.00 66 235 5.000 90000.000 0.000 1.472
19 19.00 300.00 64 242 5.000 90000.000 0.000 1.472
20 20.00 300.00 73 245 5.000 90000.000 0.000 1.472
21 21.00 300.00 75 241 5.000 90000.000 0.000 1.472
22 22.00 300.00 73 217 5.000 90000.000 0.000 1.472
23 23.00 300.00 67 222 5.000 90000.000 0.000 1.472
24 24.00 300.00 71 247 5.000 90000.000 0.000 1.472
25 25.00 300.00 78 216 5.000 90000.000 0.000 1.472
26 26.00 300.00 81 264 5.000 90000.000 0.000 1.472
27 27.00 300.00 75 190 5.000 90000.000 0.000 1.472
28 28.00 300.00 78 258 5.000 90000.000 0.000 1.472
29 29.00 300.00 55 221 5.000 90000.000 0.000 1.472
30 30.00 300.00 75 239 5.000 90000.000 0.000 1.472
31 31.00 300.00 82 221 5.000 90000.000 0.000 1.472
32 32.00 300.00 80 223 5.000 90000.000 0.000 1.472
33 33.00 300.00 82 186 5.000 90000.000 0.000 1.472
34 34.00 300.00 80 214 5.000 90000.000 0.000 1.472
35 35.00 300.00 63 224 5.000 90000.000 0.000 1.472
36 36.00 300.00 97 237 5.000 90000.000 0.000 1.472
37 37.00 300.00 74 230 5.000 90000.000 0.000 1.472
38 38.00 300.00 70 257 5.000 90000.000 0.000 1.472
39 39.00 300.00 91 226 5.000 90000.000 0.000 1.472
40 40.00 300.00 81 244 5.000 90000.000 0.000 1.472
41 41.00 300.00 90 239 5.000 90000.000 0.000 1.472
42 42.00 300.00 57 258 5.000 90000.000 0.000 1.472
43 43.00 300.00 87 223 5.000 90000.000 0.000 1.472
44 44.00 300.00 70 236 5.000 90000.000 0.000 1.472
45 45.00 300.00 70 228 5.000 90000.000 0.000 1.472
46 46.00 300.00 72 208 5.000 90000.000 0.000 1.472
47 47.00 300.00 71 205 5.000 90000.000 0.000 1.472
48 48.00 300.00 57 235 5.000 90000.000 0.000 1.472
49 49.00 300.00 63 219 5.000 90000.000 0.000 1.472
50 50.00 300.00 61 242 5.000 90000.000 0.000 1.472
51 51.00 300.00 64 249 5.000 90000.000 0.000 1.472
52 52.00 300.00 65 254 5.000 90000.000 0.000 1.472
53 53.00 300.00 77 226 5.000 90000.000 0.000 1.472
54 54.00 300.00 68 268 5.000 90000.000 0.000 1.472
55 55.00 300.00 87 210 5.000 90000.000 0.000 1.472
56 56.00 300.00 75 229 5.000 90000.000 0.000 1.472
57 57.00 300.00 58 231 5.000 90000.000 0.000 1.472
58 58.00 300.00 58 211 5.000 90000.000 0.000 1.472
59 59.00 300.00 71 208 5.000 90000.000 0.000 1.472
60 60.00 300.00 64 226 5.000 90000.000 0.000 1.472
61 61.00 300.00 72 251 5.000 90000.000 0.000 1.472
62 62.00 300.00 68 254 5.000 90000.000 0.000 1.472
63 63.00 300.00 66 249 5.000 90000.000 0.000 1.472
64 64.00 300.00 76 252 5.000 90000.000 0.000 1.472
65 65.00 300.00 80 225 5.000 90000.000 0.000 1.472
66 66.00 300.00 76 238 5.000 90000.000 0.000 1.472
67 67.00 300.00 60 224 5.000 90000.000 0.000 1.472
68 68.00 300.00 85 224 5.000 90000.000 0.000 1.472
69 69.00 300.00 79 210 5.000 90000.000 0.000 1.472
70 70.00 300.00 79 250 5.000 90000.000 0.000 1.472
71 71.00 300.00 75 224 5.000 90000.000 0.000 1.472
72 72.00 300.00 78 237 5.000 90000.000 0.000 1.472
73 73.00 300.00 75 259 5.000 90000.000 0.000 1.472
74 74.00 300.00 74 232 5.000 90000.000 0.000 1.472
75 75.00 300.00 70 244 5.000 90000.000 0.000 1.472
76 76.00 300.00 74 243 5.000 90000.000 0.000 1.472
77 77.00 300.00 73 223 5.000 90000.000 0.000 1.472
78 78.00 300.00 72 225 5.000 90000.000 0.000 1.472
79 79.00 300.00 72 246 5.000 90000.000 0.000 1.472
80 80.00 300.00 82 202 5.000 90000.000 0.000 1.472
81 81.00 300.00 94 237 5.000 90000.000 0.000 1.472
82 82.00 300.00 77 221 5.000 90000.000 0.000 1.472
83 83.00 300.00 72 225 5.000 90000.000 0.000 1.472
84 84.00 300.00 75 240 5.000 90000.000 0.000 1.472
85 85.00 300.00 82 222 5.000 90000.000 0.000 1.472
86 86.00 300.00 68 264 5.000 90000.000 0.000 1.472
87 87.00 300.00 74 241 5.000 90000.000 0.000 1.472
88 88.00 300.00 85 230 5.000 90000.000 0.000 1.472
89 89.00 300.00 66 207 5.000 90000.000 0.000 1.472
90 90.00 300.00 72 221 5.000 90000.000 0.000 1.472
91 91.00 300.00 64 200 5.000 90000.000 0.000 1.472
92 92.00 300.00 73 206 5.000 90000.000 0.000 1.472
93 93.00 300.00 62 201 5.000 90000.000 0.000 1.472
94 94.00 300.00 78 209 5.000 90000.000 0.000 1.472
95 95.00 300.00 63 196 5.000 90000.000 0.000 1.472
96 96.00 300.00 65 229 5.000 90000.000 0.000 1.472
97 97.00 300.00 82 235 5.000 90000.000 0.000 1.472
98 98.00 300.00 88 286 5.000 90000.000 0.000 1.472
99 99.00 300.00 66 240 5.000 90000.000 0.000 1.472
100 100.00 300.00 80 268 5.000 90000.000 0.000 1.472
101 101.00 300.00 77 262 5.000 90000.000 0.000 1.472
102 102.00 300.00 64 240 5.000 90000.000 0.000 1.472
