# BinNR microsec tot-time (s)  O-Beam H-beam AUX Ampl(V) f(Hz) phase(deg) chi(pos)
0 0.00 1200.00 152 1024 1 5.313 2000.000 0.000 -0.791
1 25.00 1200.00 213 1027 2 5.313 2000.000 0.000 -0.791
2 50.00 1200.00 240 875 1 5.313 2000.000 0.000 -0.791
3 75.00 1200.00 209 743 1 5.313 2000.000 0.000 -0.791
4 100.00 1200.00 174 633 2 5.313 2000.000 0.000 -0.791
5 125.00 1200.00 118 570 6 5.313 2000.000 0.000 -0.791
6 150.00 1200.00 159 539 4 5.313 2000.000 0.000 -0.791
7 175.00 1200.00 328 569 3 5.313 2000.000 0.000 -0.791
8 200.00 1200.00 488 574 1 5.313 2000.000 0.000 -0.791
9 225.00 1200.00 605 555 5 5.313 2000.000 0.000 -0.791
10 250.00 1200.00 626 539 2 5.313 2000.000 0.000 -0.791
11 275.00 1200.00 638 609 2 5.313 2000.000 0.000 -0.791
12 300.00 1200.00 564 760 4 5.313 2000.000 0.000 -0.791
13 325.00 1200.00 607 975 1 5.313 2000.000 0.000 -0.791
14 350.00 1200.00 617 1028 1 5.313 2000.000 0.000 -0.791
15 375.00 1200.00 586 1041 4 5.313 2000.000 0.000 -0.791
16 400.00 1200.00 512 974 2 5.313 2000.000 0.000 -0.791
17 425.00 1200.00 335 947 1 5.313 2000.000 0.000 -0.791
18 450.00 1200.00 221 853 2 5.313 2000.000 0.000 -0.791
19 475.00 1200.00 125 950 0 5.313 2000.000 0.000 -0.791
20 500.00 1200.00 155 1027 2 5.313 2000.000 0.000 -0.791
21 525.00 1200.00 230 997 6 5.313 2000.000 0.000 -0.791
22 550.00 1200.00 241 936 1 5.313 2000.000 0.000 -0.791
23 575.00 1200.00 240 810 2 5.313 2000.000 0.000 -0.791
24 600.00 1200.00 156 590 0 5.313 2000.000 0.000 -0.791
25 625.00 1200.00 150 580 1 5.313 2000.000 0.000 -0.791
26 650.00 1200.00 174 538 2 5.313 2000.000 0.000 -0.791
27 675.00 1200.00 332 573 5 5.313 2000.000 0.000 -0.791
28 700.00 1200.00 463 610 1 5.313 2000.000 0.000 -0.791
29 725.00 1200.00 615 565 0 5.313 2000.000 0.000 -0.791
30 750.00 1200.00 625 567 4 5.313 2000.000 0.000 -0.791
31 775.00 1200.00 584 622 4 5.313 2000.000 0.000 -0.791
32 800.00 1200.00 604 738 1 5.313 2000.000 0.000 -0.791
33 825.00 1200.00 586 875 3 5.313 2000.000 0.000 -0.791
34 850.00 1200.00 612 1011 3 5.313 2000.000 0.000 -0.791
35 875.00 1200.00 605 1060 5 5.313 2000.000 0.000 -0.791
36 900.00 1200.00 496 940 4 5.313 2000.000 0.000 -0.791
37 925.00 1200.00 365 952 3 5.313 2000.000 0.000 -0.791
38 950.00 1200.00 182 916 1 5.313 2000.000 0.000 -0.791
39 975.00 1200.00 118 985 2 5.313 2000.000 0.000 -0.791
