# BinNR microsec tot-time (s)  O-Beam H-beam AUX Ampl(V) f(Hz) phase(deg) chi(pos)
0 0.00 1200.00 147 979 2 5.313 2000.000 0.000 -0.516
1 25.00 1200.00 127 875 4 5.313 2000.000 0.000 -0.516
2 50.00 1200.00 117 699 2 5.313 2000.000 0.000 -0.516
3 75.00 1200.00 135 574 5 5.313 2000.000 0.000 -0.516
4 100.00 1200.00 114 544 3 5.313 2000.000 0.000 -0.516
5 125.00 1200.00 202 637 1 5.313 2000.000 0.000 -0.516
6 150.00 1200.00 365 720 5 5.313 2000.000 0.000 -0.516
7 175.00 1200.00 491 725 4 5.313 2000.000 0.000 -0.516
8 200.00 1200.00 613 745 2 5.313 2000.000 0.000 -0.516
9 225.00 1200.00 557 732 1 5.313 2000.000 0.000 -0.516
10 250.00 1200.00 504 638 1 5.313 2000.000 0.000 -0.516
11 275.00 1200.00 434 557 4 5.313 2000.000 0.000 -0.516
12 300.00 1200.00 384 535 0 5.313 2000.000 0.000 -0.516
13 325.00 1200.00 402 755 3 5.313 2000.000 0.000 -0.516
14 350.00 1200.00 505 906 2 5.313 2000.000 0.000 -0.516
15 375.00 1200.00 576 1048 2 5.313 2000.000 0.000 -0.516
16 400.00 1200.00 603 1019 3 5.313 2000.000 0.000 -0.516
17 425.00 1200.00 544 1036 3 5.313 2000.000 0.000 -0.516
18 450.00 1200.00 364 1019 0 5.313 2000.000 0.000 -0.516
19 475.00 1200.00 220 1069 1 5.313 2000.000 0.000 -0.516
20 500.00 1200.00 162 985 4 5.313 2000.000 0.000 -0.516
21 525.00 1200.00 133 887 6 5.313 2000.000 0.000 -0.516
22 550.00 1200.00 117 752 7 5.313 2000.000 0.000 -0.516
23 575.00 1200.00 136 578 1 5.313 2000.000 0.000 -0.516
24 600.00 1200.00 157 522 4 5.313 2000.000 0.000 -0.516
25 625.00 1200.00 217 618 2 5.313 2000.000 0.000 -0.516
26 650.00 1200.00 362 706 4 5.313 2000.000 0.000 -0.516
27 675.00 1200.00 559 794 1 5.313 2000.000 0.000 -0.516
28 700.00 1200.00 585 763 3 5.313 2000.000 0.000 -0.516
29 725.00 1200.00 616 779 4 5.313 2000.000 0.000 -0.516
30 750.00 1200.00 481 674 3 5.313 2000.000 0.000 -0.516
31 775.00 1200.00 392 555 1 5.313 2000.000 0.000 -0.516
32 800.00 1200.00 412 576 4 5.313 2000.000 0.000 -0.516
33 825.00 1200.00 399 649 1 5.313 2000.000 0.000 -0.516
34 850.00 1200.00 446 918 2 5.313 2000.000 0.000 -0.516
35 875.00 1200.00 552 1031 3 5.313 2000.000 0.000 -0.516
36 900.00 1200.00 634 1060 2 5.313 2000.000 0.000 -0.516
37 925.00 1200.00 558 1058 4 5.313 2000.000 0.000 -0.516
38 950.00 1200.00 390 1070 4 5.313 2000.000 0.000 -0.516
39 975.00 1200.00 225 989 2 5.313 2000.000 0.000 -0.516
