# BinNR microsec tot-time (s)  O-Beam H-beam AUX Ampl(V) f(Hz) phase(deg) chi(pos)
0 0.00 1200.00 161 1049 2 5.313 2000.000 0.000 1.219
1 25.00 1200.00 172 1059 3 5.313 2000.000 0.000 1.219
2 50.00 1200.00 200 899 3 5.313 2000.000 0.000 1.219
3 75.00 1200.00 226 710 4 5.313 2000.000 0.000 1.219
4 100.00 1200.00 155 579 5 5.313 2000.000 0.000 1.219
5 125.00 1200.00 121 527 6 5.313 2000.000 0.000 1.219
6 150.00 1200.00 195 563 2 5.313 2000.000 0.000 1.219
7 175.00 1200.00 324 583 2 5.313 2000.000 0.000 1.219
8 200.00 1200.00 528 573 3 5.313 2000.000 0.000 1.219
9 225.00 1200.00 565 558 2 5.313 2000.000 0.000 1.219
10 250.00 1200.00 591 556 3 5.313 2000.000 0.000 1.219
11 275.00 1200.00 566 609 1 5.313 2000.000 0.000 1.219
12 300.00 1200.00 592 766 2 5.313 2000.000 0.000 1.219
13 325.00 1200.00 559 948 6 5.313 2000.000 0.000 1.219
14 350.00 1200.00 623 1014 3 5.313 2000.000 0.000 1.219
15 375.00 1200.00 549 986 0 5.313 2000.000 0.000 1.219
16 400.00 1200.00 577 969 6 5.313 2000.000 0.000 1.219
17 425.00 1200.00 353 922 2 5.313 2000.000 0.000 1.219
18 450.00 1200.00 191 981 4 5.313 2000.000 0.000 1.219
19 475.00 1200.00 113 925 4 5.313 2000.000 0.000 1.219
20 500.00 1200.00 135 1037 4 5.313 2000.000 0.000 1.219
21 525.00 1200.00 210 1022 2 5.313 2000.000 0.000 1.219
22 550.00 1200.00 221 890 4 5.313 2000.000 0.000 1.219
23 575.00 1200.00 181 710 5 5.313 2000.000 0.000 1.219
24 600.00 1200.00 167 608 5 5.313 2000.000 0.000 1.219
25 625.00 1200.00 104 529 4 5.313 2000.000 0.000 1.219
26 650.00 1200.00 169 568 4 5.313 2000.000 0.000 1.219
27 675.00 1200.00 312 591 7 5.313 2000.000 0.000 1.219
28 700.00 1200.00 495 587 2 5.313 2000.000 0.000 1.219
29 725.00 1200.00 618 585 5 5.313 2000.000 0.000 1.219
30 750.00 1200.00 612 554 4 5.313 2000.000 0.000 1.219
31 775.00 1200.00 613 555 5 5.313 2000.000 0.000 1.219
32 800.00 1200.00 570 726 3 5.313 2000.000 0.000 1.219
33 825.00 1200.00 583 925 5 5.313 2000.000 0.000 1.219
34 850.00 1200.00 637 1023 4 5.313 2000.000 0.000 1.219
35 875.00 1200.00 632 1027 2 5.313 2000.000 0.000 1.219
36 900.00 1200.00 582 1061 2 5.313 2000.000 0.000 1.219
37 925.00 1200.00 335 912 7 5.313 2000.000 0.000 1.219
38 950.00 1200.00 203 905 2 5.313 2000.000 0.000 1.219
39 975.00 1200.00 127 995 5 5.313 2000.000 0.000 1.219
