# BinNR microsec tot-time (s)  O-Beam AUX Ampl(V) f(Hz) phase(deg) chi(pos)
0 0.00 1200.01 54 183 1.100 10000.000 0.000 -1.516
1 3.00 1200.01 115 421 1.100 10000.000 0.000 -1.516
2 6.00 1200.01 121 381 1.100 10000.000 0.000 -1.516
3 9.00 1200.01 105 433 1.100 10000.000 0.000 -1.516
4 12.00 1200.01 83 403 1.100 10000.000 0.000 -1.516
5 15.00 1200.01 97 418 1.100 10000.000 0.000 -1.516
6 18.00 1200.01 103 352 1.100 10000.000 0.000 -1.516
7 21.00 1200.01 69 387 1.100 10000.000 0.000 -1.516
8 24.00 1200.01 70 336 1.100 10000.000 0.000 -1.516
9 27.00 1200.01 89 326 1.100 10000.000 0.000 -1.516
10 30.00 1200.01 65 294 1.100 10000.000 0.000 -1.516
11 33.00 1200.01 68 265 1.100 10000.000 0.000 -1.516
12 36.00 1200.01 75 282 1.100 10000.000 0.000 -1.516
13 39.00 1200.01 85 301 1.100 10000.000 0.000 -1.516
14 42.00 1200.01 87 275 1.100 10000.000 0.000 -1.516
15 45.00 1200.01 71 309 1.100 10000.000 0.000 -1.516
16 48.00 1200.01 72 366 1.100 10000.000 0.000 -1.516
17 51.00 1200.01 86 391 1.100 10000.000 0.000 -1.516
18 54.00 1200.01 74 401 1.100 10000.000 0.000 -1.516
19 57.00 1200.01 104 383 1.100 10000.000 0.000 -1.516
20 60.00 1200.01 118 428 1.100 10000.000 0.000 -1.516
21 63.00 1200.01 97 376 1.100 10000.000 0.000 -1.516
22 66.00 1200.01 108 361 1.100 10000.000 0.000 -1.516
23 69.00 1200.01 118 333 1.100 10000.000 0.000 -1.516
24 72.00 1200.01 126 324 1.100 10000.000 0.000 -1.516
25 75.00 1200.01 121 285 1.100 10000.000 0.000 -1.516
26 78.00 1200.01 145 262 1.100 10000.000 0.000 -1.516
27 81.00 1200.01 127 240 1.100 10000.000 0.000 -1.516
28 84.00 1200.01 139 184 1.100 10000.000 0.000 -1.516
29 87.00 1200.01 141 175 1.100 10000.000 0.000 -1.516
30 90.00 1200.01 133 154 1.100 10000.000 0.000 -1.516
31 93.00 1200.01 141 131 1.100 10000.000 0.000 -1.516
32 96.00 1200.01 148 160 1.100 10000.000 0.000 -1.516
33 99.00 1200.01 125 158 1.100 10000.000 0.000 -1.516
34 102.00 1200.01 98 125 1.100 10000.000 0.000 -1.516
35 105.00 1200.01 106 176 1.100 10000.000 0.000 -1.516
36 108.00 1200.01 93 165 1.100 10000.000 0.000 -1.516
37 111.00 1200.01 92 166 1.100 10000.000 0.000 -1.516
38 114.00 1200.01 75 187 1.100 10000.000 0.000 -1.516
39 117.00 1200.01 78 213 1.100 10000.000 0.000 -1.516
40 120.00 1200.01 97 226 1.100 10000.000 0.000 -1.516
41 123.00 1200.01 72 249 1.100 10000.000 0.000 -1.516
42 126.00 1200.01 69 298 1.100 10000.000 0.000 -1.516
43 129.00 1200.01 73 353 1.100 10000.000 0.000 -1.516
44 132.00 1200.01 89 409 1.100 10000.000 0.000 -1.516
45 135.00 1200.01 80 399 1.100 10000.000 0.000 -1.516
46 138.00 1200.01 72 460 1.100 10000.000 0.000 -1.516
47 141.00 1200.01 76 463 1.100 10000.000 0.000 -1.516
48 144.00 1200.01 86 463 1.100 10000.000 0.000 -1.516
49 147.00 1200.01 81 454 1.100 10000.000 0.000 -1.516
50 150.00 1200.01 102 485 1.100 10000.000 0.000 -1.516
51 153.00 1200.01 93 470 1.100 10000.000 0.000 -1.516
52 156.00 1200.01 87 449 1.100 10000.000 0.000 -1.516
53 159.00 1200.01 92 409 1.100 10000.000 0.000 -1.516
54 162.00 1200.01 105 392 1.100 10000.000 0.000 -1.516
55 165.00 1200.01 91 365 1.100 10000.000 0.000 -1.516
56 168.00 1200.01 107 327 1.100 10000.000 0.000 -1.516
57 171.00 1200.01 124 280 1.100 10000.000 0.000 -1.516
58 174.00 1200.01 144 281 1.100 10000.000 0.000 -1.516
59 177.00 1200.01 132 243 1.100 10000.000 0.000 -1.516
60 180.00 1200.01 138 215 1.100 10000.000 0.000 -1.516
61 183.00 1200.01 136 168 1.100 10000.000 0.000 -1.516
62 186.00 1200.01 128 177 1.100 10000.000 0.000 -1.516
63 189.00 1200.01 120 169 1.100 10000.000 0.000 -1.516
64 192.00 1200.01 143 143 1.100 10000.000 0.000 -1.516
65 195.00 1200.01 136 179 1.100 10000.000 0.000 -1.516
66 198.00 1200.01 136 138 1.100 10000.000 0.000 -1.516
67 201.00 1200.01 112 142 1.100 10000.000 0.000 -1.516
68 204.00 1200.01 104 172 1.100 10000.000 0.000 -1.516
69 207.00 1200.01 94 156 1.100 10000.000 0.000 -1.516
70 210.00 1200.01 115 194 1.100 10000.000 0.000 -1.516
71 213.00 1200.01 95 183 1.100 10000.000 0.000 -1.516
72 216.00 1200.01 96 203 1.100 10000.000 0.000 -1.516
73 219.00 1200.01 87 247 1.100 10000.000 0.000 -1.516
74 222.00 1200.01 91 303 1.100 10000.000 0.000 -1.516
75 225.00 1200.01 64 321 1.100 10000.000 0.000 -1.516
76 228.00 1200.01 81 379 1.100 10000.000 0.000 -1.516
77 231.00 1200.01 77 370 1.100 10000.000 0.000 -1.516
78 234.00 1200.01 73 414 1.100 10000.000 0.000 -1.516
79 237.00 1200.01 59 406 1.100 10000.000 0.000 -1.516
80 240.00 1200.01 80 474 1.100 10000.000 0.000 -1.516
81 243.00 1200.01 91 450 1.100 10000.000 0.000 -1.516
82 246.00 1200.01 86 433 1.100 10000.000 0.000 -1.516
83 249.00 1200.01 69 508 1.100 10000.000 0.000 -1.516
84 252.00 1200.01 72 459 1.100 10000.000 0.000 -1.516
85 255.00 1200.01 77 445 1.100 10000.000 0.000 -1.516
86 258.00 1200.01 97 461 1.100 10000.000 0.000 -1.516
87 261.00 1200.01 98 383 1.100 10000.000 0.000 -1.516
88 264.00 1200.01 109 368 1.100 10000.000 0.000 -1.516
89 267.00 1200.01 126 338 1.100 10000.000 0.000 -1.516
90 270.00 1200.01 119 298 1.100 10000.000 0.000 -1.516
91 273.00 1200.01 108 276 1.100 10000.000 0.000 -1.516
92 276.00 1200.01 109 256 1.100 10000.000 0.000 -1.516
93 279.00 1200.01 120 236 1.100 10000.000 0.000 -1.516
94 282.00 1200.01 128 194 1.100 10000.000 0.000 -1.516
95 285.00 1200.01 101 174 1.100 10000.000 0.000 -1.516
96 288.00 1200.01 118 149 1.100 10000.000 0.000 -1.516
97 291.00 1200.01 123 152 1.100 10000.000 0.000 -1.516
98 294.00 1200.01 107 143 1.100 10000.000 0.000 -1.516
99 297.00 1200.01 85 175 1.100 10000.000 0.000 -1.516
100 300.00 1200.01 103 162 1.100 10000.000 0.000 -1.516
101 303.00 1200.01 87 173 1.100 10000.000 0.000 -1.516
102 306.00 1200.01 92 193 1.100 10000.000 0.000 -1.516
103 309.00 1200.01 126 168 1.100 10000.000 0.000 -1.516
104 312.00 1200.01 112 202 1.100 10000.000 0.000 -1.516
105 315.00 1200.01 125 227 1.100 10000.000 0.000 -1.516
106 318.00 1200.01 120 237 1.100 10000.000 0.000 -1.516
107 321.00 1200.01 129 241 1.100 10000.000 0.000 -1.516
108 324.00 1200.01 132 283 1.100 10000.000 0.000 -1.516
109 327.00 1200.01 111 331 1.100 10000.000 0.000 -1.516
110 330.00 1200.01 122 354 1.100 10000.000 0.000 -1.516
111 333.00 1200.01 107 383 1.100 10000.000 0.000 -1.516
112 336.00 1200.01 112 427 1.100 10000.000 0.000 -1.516
113 339.00 1200.01 93 438 1.100 10000.000 0.000 -1.516
114 342.00 1200.01 103 471 1.100 10000.000 0.000 -1.516
115 345.00 1200.01 85 481 1.100 10000.000 0.000 -1.516
116 348.00 1200.01 83 511 1.100 10000.000 0.000 -1.516
117 351.00 1200.01 76 462 1.100 10000.000 0.000 -1.516
118 354.00 1200.01 67 486 1.100 10000.000 0.000 -1.516
119 357.00 1200.01 99 423 1.100 10000.000 0.000 -1.516
120 360.00 1200.01 83 461 1.100 10000.000 0.000 -1.516
121 363.00 1200.01 93 389 1.100 10000.000 0.000 -1.516
122 366.00 1200.01 73 369 1.100 10000.000 0.000 -1.516
123 369.00 1200.01 85 311 1.100 10000.000 0.000 -1.516
124 372.00 1200.01 79 314 1.100 10000.000 0.000 -1.516
125 375.00 1200.01 82 270 1.100 10000.000 0.000 -1.516
126 378.00 1200.01 87 237 1.100 10000.000 0.000 -1.516
127 381.00 1200.01 65 203 1.100 10000.000 0.000 -1.516
128 384.00 1200.01 88 167 1.100 10000.000 0.000 -1.516
129 387.00 1200.01 82 178 1.100 10000.000 0.000 -1.516
130 390.00 1200.01 102 178 1.100 10000.000 0.000 -1.516
131 393.00 1200.01 97 152 1.100 10000.000 0.000 -1.516
132 396.00 1200.01 91 141 1.100 10000.000 0.000 -1.516
133 399.00 1200.01 109 139 1.100 10000.000 0.000 -1.516
134 402.00 1200.01 121 148 1.100 10000.000 0.000 -1.516
135 405.00 1200.01 130 162 1.100 10000.000 0.000 -1.516
136 408.00 1200.01 137 172 1.100 10000.000 0.000 -1.516
137 411.00 1200.01 137 193 1.100 10000.000 0.000 -1.516
138 414.00 1200.01 127 184 1.100 10000.000 0.000 -1.516
139 417.00 1200.01 142 214 1.100 10000.000 0.000 -1.516
140 420.00 1200.01 138 251 1.100 10000.000 0.000 -1.516
141 423.00 1200.01 139 281 1.100 10000.000 0.000 -1.516
142 426.00 1200.01 122 315 1.100 10000.000 0.000 -1.516
143 429.00 1200.01 126 366 1.100 10000.000 0.000 -1.516
144 432.00 1200.01 118 397 1.100 10000.000 0.000 -1.516
