# BinNR microsec tot-time (s)  O-Beam AUX Ampl(V) f(Hz) phase(deg) chi(pos)
0 0.00 1200.00 100 150 1.100 10000.000 0.000 -0.011
1 3.00 1200.00 218 268 1.100 10000.000 0.000 -0.011
2 6.00 1200.00 237 258 1.100 10000.000 0.000 -0.011
3 9.00 1200.00 223 272 1.100 10000.000 0.000 -0.011
4 12.00 1200.00 210 285 1.100 10000.000 0.000 -0.011
5 15.00 1200.00 223 339 1.100 10000.000 0.000 -0.011
6 18.00 1200.00 213 350 1.100 10000.000 0.000 -0.011
7 21.00 1200.00 255 347 1.100 10000.000 0.000 -0.011
8 24.00 1200.00 269 377 1.100 10000.000 0.000 -0.011
9 27.00 1200.00 280 368 1.100 10000.000 0.000 -0.011
10 30.00 1200.00 280 434 1.100 10000.000 0.000 -0.011
11 33.00 1200.00 276 391 1.100 10000.000 0.000 -0.011
12 36.00 1200.00 262 417 1.100 10000.000 0.000 -0.011
13 39.00 1200.00 247 393 1.100 10000.000 0.000 -0.011
14 42.00 1200.00 245 398 1.100 10000.000 0.000 -0.011
15 45.00 1200.00 249 346 1.100 10000.000 0.000 -0.011
16 48.00 1200.00 250 345 1.100 10000.000 0.000 -0.011
17 51.00 1200.00 269 326 1.100 10000.000 0.000 -0.011
18 54.00 1200.00 255 309 1.100 10000.000 0.000 -0.011
19 57.00 1200.00 225 312 1.100 10000.000 0.000 -0.011
20 60.00 1200.00 203 317 1.100 10000.000 0.000 -0.011
21 63.00 1200.00 218 318 1.100 10000.000 0.000 -0.011
22 66.00 1200.00 203 326 1.100 10000.000 0.000 -0.011
23 69.00 1200.00 170 355 1.100 10000.000 0.000 -0.011
24 72.00 1200.00 182 413 1.100 10000.000 0.000 -0.011
25 75.00 1200.00 163 393 1.100 10000.000 0.000 -0.011
26 78.00 1200.00 158 473 1.100 10000.000 0.000 -0.011
27 81.00 1200.00 171 500 1.100 10000.000 0.000 -0.011
28 84.00 1200.00 172 549 1.100 10000.000 0.000 -0.011
29 87.00 1200.00 138 567 1.100 10000.000 0.000 -0.011
30 90.00 1200.00 166 627 1.100 10000.000 0.000 -0.011
31 93.00 1200.00 187 605 1.100 10000.000 0.000 -0.011
32 96.00 1200.00 158 657 1.100 10000.000 0.000 -0.011
33 99.00 1200.00 165 643 1.100 10000.000 0.000 -0.011
34 102.00 1200.00 173 666 1.100 10000.000 0.000 -0.011
35 105.00 1200.00 216 614 1.100 10000.000 0.000 -0.011
36 108.00 1200.00 201 635 1.100 10000.000 0.000 -0.011
37 111.00 1200.00 207 519 1.100 10000.000 0.000 -0.011
38 114.00 1200.00 232 525 1.100 10000.000 0.000 -0.011
39 117.00 1200.00 221 474 1.100 10000.000 0.000 -0.011
40 120.00 1200.00 248 442 1.100 10000.000 0.000 -0.011
41 123.00 1200.00 306 404 1.100 10000.000 0.000 -0.011
42 126.00 1200.00 286 429 1.100 10000.000 0.000 -0.011
43 129.00 1200.00 268 346 1.100 10000.000 0.000 -0.011
44 132.00 1200.00 251 302 1.100 10000.000 0.000 -0.011
45 135.00 1200.00 275 278 1.100 10000.000 0.000 -0.011
46 138.00 1200.00 279 270 1.100 10000.000 0.000 -0.011
47 141.00 1200.00 277 223 1.100 10000.000 0.000 -0.011
48 144.00 1200.00 259 250 1.100 10000.000 0.000 -0.011
49 147.00 1200.00 275 239 1.100 10000.000 0.000 -0.011
50 150.00 1200.00 216 249 1.100 10000.000 0.000 -0.011
51 153.00 1200.00 232 200 1.100 10000.000 0.000 -0.011
52 156.00 1200.00 227 256 1.100 10000.000 0.000 -0.011
53 159.00 1200.00 217 263 1.100 10000.000 0.000 -0.011
54 162.00 1200.00 210 320 1.100 10000.000 0.000 -0.011
55 165.00 1200.00 192 318 1.100 10000.000 0.000 -0.011
56 168.00 1200.00 211 359 1.100 10000.000 0.000 -0.011
57 171.00 1200.00 186 427 1.100 10000.000 0.000 -0.011
58 174.00 1200.00 191 449 1.100 10000.000 0.000 -0.011
59 177.00 1200.00 166 473 1.100 10000.000 0.000 -0.011
60 180.00 1200.00 173 526 1.100 10000.000 0.000 -0.011
61 183.00 1200.00 167 567 1.100 10000.000 0.000 -0.011
62 186.00 1200.00 156 652 1.100 10000.000 0.000 -0.011
63 189.00 1200.00 152 612 1.100 10000.000 0.000 -0.011
64 192.00 1200.00 172 652 1.100 10000.000 0.000 -0.011
65 195.00 1200.00 173 614 1.100 10000.000 0.000 -0.011
66 198.00 1200.00 194 631 1.100 10000.000 0.000 -0.011
67 201.00 1200.00 186 635 1.100 10000.000 0.000 -0.011
68 204.00 1200.00 196 636 1.100 10000.000 0.000 -0.011
69 207.00 1200.00 201 574 1.100 10000.000 0.000 -0.011
70 210.00 1200.00 211 581 1.100 10000.000 0.000 -0.011
71 213.00 1200.00 226 556 1.100 10000.000 0.000 -0.011
72 216.00 1200.00 260 524 1.100 10000.000 0.000 -0.011
73 219.00 1200.00 274 460 1.100 10000.000 0.000 -0.011
74 222.00 1200.00 251 442 1.100 10000.000 0.000 -0.011
75 225.00 1200.00 257 404 1.100 10000.000 0.000 -0.011
76 228.00 1200.00 274 352 1.100 10000.000 0.000 -0.011
77 231.00 1200.00 300 337 1.100 10000.000 0.000 -0.011
78 234.00 1200.00 258 309 1.100 10000.000 0.000 -0.011
79 237.00 1200.00 279 268 1.100 10000.000 0.000 -0.011
80 240.00 1200.00 262 259 1.100 10000.000 0.000 -0.011
81 243.00 1200.00 257 254 1.100 10000.000 0.000 -0.011
82 246.00 1200.00 280 251 1.100 10000.000 0.000 -0.011
83 249.00 1200.00 251 241 1.100 10000.000 0.000 -0.011
84 252.00 1200.00 255 207 1.100 10000.000 0.000 -0.011
85 255.00 1200.00 194 252 1.100 10000.000 0.000 -0.011
86 258.00 1200.00 216 251 1.100 10000.000 0.000 -0.011
87 261.00 1200.00 224 274 1.100 10000.000 0.000 -0.011
88 264.00 1200.00 197 318 1.100 10000.000 0.000 -0.011
89 267.00 1200.00 190 313 1.100 10000.000 0.000 -0.011
90 270.00 1200.00 181 351 1.100 10000.000 0.000 -0.011
91 273.00 1200.00 182 389 1.100 10000.000 0.000 -0.011
92 276.00 1200.00 166 473 1.100 10000.000 0.000 -0.011
93 279.00 1200.00 192 441 1.100 10000.000 0.000 -0.011
94 282.00 1200.00 197 530 1.100 10000.000 0.000 -0.011
95 285.00 1200.00 177 541 1.100 10000.000 0.000 -0.011
96 288.00 1200.00 205 570 1.100 10000.000 0.000 -0.011
97 291.00 1200.00 186 596 1.100 10000.000 0.000 -0.011
98 294.00 1200.00 212 628 1.100 10000.000 0.000 -0.011
99 297.00 1200.00 194 597 1.100 10000.000 0.000 -0.011
100 300.00 1200.00 203 640 1.100 10000.000 0.000 -0.011
101 303.00 1200.00 218 623 1.100 10000.000 0.000 -0.011
102 306.00 1200.00 216 568 1.100 10000.000 0.000 -0.011
103 309.00 1200.00 204 581 1.100 10000.000 0.000 -0.011
104 312.00 1200.00 193 564 1.100 10000.000 0.000 -0.011
105 315.00 1200.00 199 482 1.100 10000.000 0.000 -0.011
106 318.00 1200.00 184 481 1.100 10000.000 0.000 -0.011
107 321.00 1200.00 192 453 1.100 10000.000 0.000 -0.011
108 324.00 1200.00 190 414 1.100 10000.000 0.000 -0.011
109 327.00 1200.00 170 357 1.100 10000.000 0.000 -0.011
110 330.00 1200.00 176 314 1.100 10000.000 0.000 -0.011
111 333.00 1200.00 209 276 1.100 10000.000 0.000 -0.011
112 336.00 1200.00 197 295 1.100 10000.000 0.000 -0.011
113 339.00 1200.00 187 233 1.100 10000.000 0.000 -0.011
114 342.00 1200.00 207 243 1.100 10000.000 0.000 -0.011
115 345.00 1200.00 226 220 1.100 10000.000 0.000 -0.011
116 348.00 1200.00 209 261 1.100 10000.000 0.000 -0.011
117 351.00 1200.00 230 230 1.100 10000.000 0.000 -0.011
118 354.00 1200.00 267 240 1.100 10000.000 0.000 -0.011
119 357.00 1200.00 279 235 1.100 10000.000 0.000 -0.011
120 360.00 1200.00 293 280 1.100 10000.000 0.000 -0.011
121 363.00 1200.00 216 303 1.100 10000.000 0.000 -0.011
122 366.00 1200.00 282 340 1.100 10000.000 0.000 -0.011
123 369.00 1200.00 262 345 1.100 10000.000 0.000 -0.011
124 372.00 1200.00 283 395 1.100 10000.000 0.000 -0.011
125 375.00 1200.00 274 473 1.100 10000.000 0.000 -0.011
126 378.00 1200.00 267 481 1.100 10000.000 0.000 -0.011
127 381.00 1200.00 285 478 1.100 10000.000 0.000 -0.011
128 384.00 1200.00 254 585 1.100 10000.000 0.000 -0.011
129 387.00 1200.00 227 608 1.100 10000.000 0.000 -0.011
130 390.00 1200.00 248 635 1.100 10000.000 0.000 -0.011
131 393.00 1200.00 206 632 1.100 10000.000 0.000 -0.011
132 396.00 1200.00 230 620 1.100 10000.000 0.000 -0.011
133 399.00 1200.00 181 614 1.100 10000.000 0.000 -0.011
134 402.00 1200.00 191 618 1.100 10000.000 0.000 -0.011
135 405.00 1200.00 190 599 1.100 10000.000 0.000 -0.011
136 408.00 1200.00 178 623 1.100 10000.000 0.000 -0.011
137 411.00 1200.00 139 585 1.100 10000.000 0.000 -0.011
138 414.00 1200.00 185 540 1.100 10000.000 0.000 -0.011
139 417.00 1200.00 172 499 1.100 10000.000 0.000 -0.011
140 420.00 1200.00 150 512 1.100 10000.000 0.000 -0.011
141 423.00 1200.00 163 440 1.100 10000.000 0.000 -0.011
142 426.00 1200.00 145 318 1.100 10000.000 0.000 -0.011
143 429.00 1200.00 160 329 1.100 10000.000 0.000 -0.011
144 432.00 1200.00 192 368 1.100 10000.000 0.000 -0.011
