# BinNR microsec tot-time (s)  O-Beam AUX Ampl(V) f(Hz) phase(deg) chi(pos)
0 0.00 1200.00 123 363 1.100 10000.000 0.000 -1.176
1 3.00 1200.00 184 754 1.100 10000.000 0.000 -1.176
2 6.00 1200.00 199 755 1.100 10000.000 0.000 -1.176
3 9.00 1200.00 163 741 1.100 10000.000 0.000 -1.176
4 12.00 1200.00 178 757 1.100 10000.000 0.000 -1.176
5 15.00 1200.00 165 662 1.100 10000.000 0.000 -1.176
6 18.00 1200.00 142 698 1.100 10000.000 0.000 -1.176
7 21.00 1200.00 145 644 1.100 10000.000 0.000 -1.176
8 24.00 1200.00 134 632 1.100 10000.000 0.000 -1.176
9 27.00 1200.00 122 647 1.100 10000.000 0.000 -1.176
10 30.00 1200.00 144 598 1.100 10000.000 0.000 -1.176
11 33.00 1200.00 113 606 1.100 10000.000 0.000 -1.176
12 36.00 1200.00 127 580 1.100 10000.000 0.000 -1.176
13 39.00 1200.00 135 623 1.100 10000.000 0.000 -1.176
14 42.00 1200.00 109 635 1.100 10000.000 0.000 -1.176
15 45.00 1200.00 111 613 1.100 10000.000 0.000 -1.176
16 48.00 1200.00 130 762 1.100 10000.000 0.000 -1.176
17 51.00 1200.00 146 722 1.100 10000.000 0.000 -1.176
18 54.00 1200.00 152 694 1.100 10000.000 0.000 -1.176
19 57.00 1200.00 171 727 1.100 10000.000 0.000 -1.176
20 60.00 1200.00 186 775 1.100 10000.000 0.000 -1.176
21 63.00 1200.00 178 705 1.100 10000.000 0.000 -1.176
22 66.00 1200.00 182 714 1.100 10000.000 0.000 -1.176
23 69.00 1200.00 214 675 1.100 10000.000 0.000 -1.176
24 72.00 1200.00 203 619 1.100 10000.000 0.000 -1.176
25 75.00 1200.00 223 591 1.100 10000.000 0.000 -1.176
26 78.00 1200.00 238 541 1.100 10000.000 0.000 -1.176
27 81.00 1200.00 213 515 1.100 10000.000 0.000 -1.176
28 84.00 1200.00 234 475 1.100 10000.000 0.000 -1.176
29 87.00 1200.00 251 426 1.100 10000.000 0.000 -1.176
30 90.00 1200.00 237 413 1.100 10000.000 0.000 -1.176
31 93.00 1200.00 227 385 1.100 10000.000 0.000 -1.176
32 96.00 1200.00 244 417 1.100 10000.000 0.000 -1.176
33 99.00 1200.00 231 395 1.100 10000.000 0.000 -1.176
34 102.00 1200.00 232 407 1.100 10000.000 0.000 -1.176
35 105.00 1200.00 164 398 1.100 10000.000 0.000 -1.176
36 108.00 1200.00 171 456 1.100 10000.000 0.000 -1.176
37 111.00 1200.00 166 427 1.100 10000.000 0.000 -1.176
38 114.00 1200.00 157 445 1.100 10000.000 0.000 -1.176
39 117.00 1200.00 138 549 1.100 10000.000 0.000 -1.176
40 120.00 1200.00 143 568 1.100 10000.000 0.000 -1.176
41 123.00 1200.00 146 621 1.100 10000.000 0.000 -1.176
42 126.00 1200.00 150 664 1.100 10000.000 0.000 -1.176
43 129.00 1200.00 132 642 1.100 10000.000 0.000 -1.176
44 132.00 1200.00 114 755 1.100 10000.000 0.000 -1.176
45 135.00 1200.00 109 739 1.100 10000.000 0.000 -1.176
46 138.00 1200.00 136 771 1.100 10000.000 0.000 -1.176
47 141.00 1200.00 133 775 1.100 10000.000 0.000 -1.176
48 144.00 1200.00 140 785 1.100 10000.000 0.000 -1.176
49 147.00 1200.00 127 787 1.100 10000.000 0.000 -1.176
50 150.00 1200.00 136 745 1.100 10000.000 0.000 -1.176
51 153.00 1200.00 145 806 1.100 10000.000 0.000 -1.176
52 156.00 1200.00 171 747 1.100 10000.000 0.000 -1.176
53 159.00 1200.00 183 792 1.100 10000.000 0.000 -1.176
54 162.00 1200.00 198 765 1.100 10000.000 0.000 -1.176
55 165.00 1200.00 199 686 1.100 10000.000 0.000 -1.176
56 168.00 1200.00 205 733 1.100 10000.000 0.000 -1.176
57 171.00 1200.00 209 646 1.100 10000.000 0.000 -1.176
58 174.00 1200.00 214 620 1.100 10000.000 0.000 -1.176
59 177.00 1200.00 200 541 1.100 10000.000 0.000 -1.176
60 180.00 1200.00 219 469 1.100 10000.000 0.000 -1.176
61 183.00 1200.00 257 470 1.100 10000.000 0.000 -1.176
62 186.00 1200.00 249 439 1.100 10000.000 0.000 -1.176
63 189.00 1200.00 252 434 1.100 10000.000 0.000 -1.176
64 192.00 1200.00 206 397 1.100 10000.000 0.000 -1.176
65 195.00 1200.00 232 359 1.100 10000.000 0.000 -1.176
66 198.00 1200.00 241 415 1.100 10000.000 0.000 -1.176
67 201.00 1200.00 210 405 1.100 10000.000 0.000 -1.176
68 204.00 1200.00 209 416 1.100 10000.000 0.000 -1.176
69 207.00 1200.00 209 410 1.100 10000.000 0.000 -1.176
70 210.00 1200.00 192 441 1.100 10000.000 0.000 -1.176
71 213.00 1200.00 173 469 1.100 10000.000 0.000 -1.176
72 216.00 1200.00 167 513 1.100 10000.000 0.000 -1.176
73 219.00 1200.00 152 494 1.100 10000.000 0.000 -1.176
74 222.00 1200.00 156 565 1.100 10000.000 0.000 -1.176
75 225.00 1200.00 126 669 1.100 10000.000 0.000 -1.176
76 228.00 1200.00 130 667 1.100 10000.000 0.000 -1.176
77 231.00 1200.00 135 676 1.100 10000.000 0.000 -1.176
78 234.00 1200.00 117 722 1.100 10000.000 0.000 -1.176
79 237.00 1200.00 141 795 1.100 10000.000 0.000 -1.176
80 240.00 1200.00 136 808 1.100 10000.000 0.000 -1.176
81 243.00 1200.00 122 721 1.100 10000.000 0.000 -1.176
82 246.00 1200.00 135 797 1.100 10000.000 0.000 -1.176
83 249.00 1200.00 159 799 1.100 10000.000 0.000 -1.176
84 252.00 1200.00 157 836 1.100 10000.000 0.000 -1.176
85 255.00 1200.00 132 813 1.100 10000.000 0.000 -1.176
86 258.00 1200.00 175 775 1.100 10000.000 0.000 -1.176
87 261.00 1200.00 186 705 1.100 10000.000 0.000 -1.176
88 264.00 1200.00 209 787 1.100 10000.000 0.000 -1.176
89 267.00 1200.00 194 646 1.100 10000.000 0.000 -1.176
90 270.00 1200.00 212 661 1.100 10000.000 0.000 -1.176
91 273.00 1200.00 194 567 1.100 10000.000 0.000 -1.176
92 276.00 1200.00 220 558 1.100 10000.000 0.000 -1.176
93 279.00 1200.00 219 523 1.100 10000.000 0.000 -1.176
94 282.00 1200.00 202 498 1.100 10000.000 0.000 -1.176
95 285.00 1200.00 232 442 1.100 10000.000 0.000 -1.176
96 288.00 1200.00 198 437 1.100 10000.000 0.000 -1.176
97 291.00 1200.00 208 394 1.100 10000.000 0.000 -1.176
98 294.00 1200.00 210 406 1.100 10000.000 0.000 -1.176
99 297.00 1200.00 179 385 1.100 10000.000 0.000 -1.176
100 300.00 1200.00 188 363 1.100 10000.000 0.000 -1.176
101 303.00 1200.00 154 366 1.100 10000.000 0.000 -1.176
102 306.00 1200.00 210 401 1.100 10000.000 0.000 -1.176
103 309.00 1200.00 186 433 1.100 10000.000 0.000 -1.176
104 312.00 1200.00 193 463 1.100 10000.000 0.000 -1.176
105 315.00 1200.00 186 516 1.100 10000.000 0.000 -1.176
106 318.00 1200.00 227 538 1.100 10000.000 0.000 -1.176
107 321.00 1200.00 205 551 1.100 10000.000 0.000 -1.176
108 324.00 1200.00 217 652 1.100 10000.000 0.000 -1.176
109 327.00 1200.00 200 604 1.100 10000.000 0.000 -1.176
110 330.00 1200.00 225 704 1.100 10000.000 0.000 -1.176
111 333.00 1200.00 204 744 1.100 10000.000 0.000 -1.176
112 336.00 1200.00 201 798 1.100 10000.000 0.000 -1.176
113 339.00 1200.00 187 797 1.100 10000.000 0.000 -1.176
114 342.00 1200.00 182 829 1.100 10000.000 0.000 -1.176
115 345.00 1200.00 174 761 1.100 10000.000 0.000 -1.176
116 348.00 1200.00 168 854 1.100 10000.000 0.000 -1.176
117 351.00 1200.00 163 761 1.100 10000.000 0.000 -1.176
118 354.00 1200.00 149 809 1.100 10000.000 0.000 -1.176
119 357.00 1200.00 156 742 1.100 10000.000 0.000 -1.176
120 360.00 1200.00 144 768 1.100 10000.000 0.000 -1.176
121 363.00 1200.00 120 730 1.100 10000.000 0.000 -1.176
122 366.00 1200.00 130 715 1.100 10000.000 0.000 -1.176
123 369.00 1200.00 126 640 1.100 10000.000 0.000 -1.176
124 372.00 1200.00 131 655 1.100 10000.000 0.000 -1.176
125 375.00 1200.00 116 594 1.100 10000.000 0.000 -1.176
126 378.00 1200.00 131 517 1.100 10000.000 0.000 -1.176
127 381.00 1200.00 153 486 1.100 10000.000 0.000 -1.176
128 384.00 1200.00 142 470 1.100 10000.000 0.000 -1.176
129 387.00 1200.00 171 410 1.100 10000.000 0.000 -1.176
130 390.00 1200.00 169 443 1.100 10000.000 0.000 -1.176
131 393.00 1200.00 143 378 1.100 10000.000 0.000 -1.176
132 396.00 1200.00 189 362 1.100 10000.000 0.000 -1.176
133 399.00 1200.00 181 403 1.100 10000.000 0.000 -1.176
134 402.00 1200.00 171 387 1.100 10000.000 0.000 -1.176
135 405.00 1200.00 231 366 1.100 10000.000 0.000 -1.176
136 408.00 1200.00 234 404 1.100 10000.000 0.000 -1.176
137 411.00 1200.00 195 441 1.100 10000.000 0.000 -1.176
138 414.00 1200.00 207 506 1.100 10000.000 0.000 -1.176
139 417.00 1200.00 228 501 1.100 10000.000 0.000 -1.176
140 420.00 1200.00 219 559 1.100 10000.000 0.000 -1.176
141 423.00 1200.00 223 602 1.100 10000.000 0.000 -1.176
142 426.00 1200.00 245 648 1.100 10000.000 0.000 -1.176
143 429.00 1200.00 228 655 1.100 10000.000 0.000 -1.176
144 432.00 1200.00 202 753 1.100 10000.000 0.000 -1.176
