# BinNR microsec tot-time (s)  O-Beam AUX Ampl_1(V) f_1(Hz) phase_1(deg) Ampl_2(V) f_2(Hz) phase_2(deg) chi(pos)
0 0.00 1200.00 68 189 3.100 10000.000 0.000 4.000 15000.000 0.000 0.330
1 3.00 1200.00 113 397 3.100 10000.000 0.000 4.000 15000.000 0.000 0.330
2 6.00 1200.00 97 382 3.100 10000.000 0.000 4.000 15000.000 0.000 0.330
3 9.00 1200.00 116 399 3.100 10000.000 0.000 4.000 15000.000 0.000 0.330
4 12.00 1200.00 124 402 3.100 10000.000 0.000 4.000 15000.000 0.000 0.330
5 15.00 1200.00 133 362 3.100 10000.000 0.000 4.000 15000.000 0.000 0.330
6 18.00 1200.00 101 377 3.100 10000.000 0.000 4.000 15000.000 0.000 0.330
7 21.00 1200.00 139 376 3.100 10000.000 0.000 4.000 15000.000 0.000 0.330
8 24.00 1200.00 132 401 3.100 10000.000 0.000 4.000 15000.000 0.000 0.330
9 27.00 1200.00 109 380 3.100 10000.000 0.000 4.000 15000.000 0.000 0.330
10 30.00 1200.00 83 358 3.100 10000.000 0.000 4.000 15000.000 0.000 0.330
11 33.00 1200.00 100 378 3.100 10000.000 0.000 4.000 15000.000 0.000 0.330
12 36.00 1200.00 88 374 3.100 10000.000 0.000 4.000 15000.000 0.000 0.330
13 39.00 1200.00 101 383 3.100 10000.000 0.000 4.000 15000.000 0.000 0.330
14 42.00 1200.00 104 365 3.100 10000.000 0.000 4.000 15000.000 0.000 0.330
15 45.00 1200.00 93 422 3.100 10000.000 0.000 4.000 15000.000 0.000 0.330
16 48.00 1200.00 82 403 3.100 10000.000 0.000 4.000 15000.000 0.000 0.330
17 51.00 1200.00 114 387 3.100 10000.000 0.000 4.000 15000.000 0.000 0.330
18 54.00 1200.00 107 396 3.100 10000.000 0.000 4.000 15000.000 0.000 0.330
19 57.00 1200.00 136 398 3.100 10000.000 0.000 4.000 15000.000 0.000 0.330
20 60.00 1200.00 163 408 3.100 10000.000 0.000 4.000 15000.000 0.000 0.330
21 63.00 1200.00 172 390 3.100 10000.000 0.000 4.000 15000.000 0.000 0.330
22 66.00 1200.00 228 396 3.100 10000.000 0.000 4.000 15000.000 0.000 0.330
23 69.00 1200.00 244 362 3.100 10000.000 0.000 4.000 15000.000 0.000 0.330
24 72.00 1200.00 276 463 3.100 10000.000 0.000 4.000 15000.000 0.000 0.330
25 75.00 1200.00 293 447 3.100 10000.000 0.000 4.000 15000.000 0.000 0.330
26 78.00 1200.00 267 514 3.100 10000.000 0.000 4.000 15000.000 0.000 0.330
27 81.00 1200.00 268 566 3.100 10000.000 0.000 4.000 15000.000 0.000 0.330
28 84.00 1200.00 284 586 3.100 10000.000 0.000 4.000 15000.000 0.000 0.330
29 87.00 1200.00 248 604 3.100 10000.000 0.000 4.000 15000.000 0.000 0.330
30 90.00 1200.00 224 570 3.100 10000.000 0.000 4.000 15000.000 0.000 0.330
31 93.00 1200.00 157 495 3.100 10000.000 0.000 4.000 15000.000 0.000 0.330
32 96.00 1200.00 155 488 3.100 10000.000 0.000 4.000 15000.000 0.000 0.330
33 99.00 1200.00 128 381 3.100 10000.000 0.000 4.000 15000.000 0.000 0.330
34 102.00 1200.00 114 333 3.100 10000.000 0.000 4.000 15000.000 0.000 0.330
35 105.00 1200.00 109 267 3.100 10000.000 0.000 4.000 15000.000 0.000 0.330
36 108.00 1200.00 99 254 3.100 10000.000 0.000 4.000 15000.000 0.000 0.330
37 111.00 1200.00 95 245 3.100 10000.000 0.000 4.000 15000.000 0.000 0.330
38 114.00 1200.00 96 263 3.100 10000.000 0.000 4.000 15000.000 0.000 0.330
39 117.00 1200.00 91 332 3.100 10000.000 0.000 4.000 15000.000 0.000 0.330
40 120.00 1200.00 100 452 3.100 10000.000 0.000 4.000 15000.000 0.000 0.330
41 123.00 1200.00 87 520 3.100 10000.000 0.000 4.000 15000.000 0.000 0.330
42 126.00 1200.00 87 478 3.100 10000.000 0.000 4.000 15000.000 0.000 0.330
43 129.00 1200.00 114 470 3.100 10000.000 0.000 4.000 15000.000 0.000 0.330
44 132.00 1200.00 140 389 3.100 10000.000 0.000 4.000 15000.000 0.000 0.330
45 135.00 1200.00 170 271 3.100 10000.000 0.000 4.000 15000.000 0.000 0.330
46 138.00 1200.00 196 156 3.100 10000.000 0.000 4.000 15000.000 0.000 0.330
47 141.00 1200.00 209 117 3.100 10000.000 0.000 4.000 15000.000 0.000 0.330
48 144.00 1200.00 232 132 3.100 10000.000 0.000 4.000 15000.000 0.000 0.330
49 147.00 1200.00 243 100 3.100 10000.000 0.000 4.000 15000.000 0.000 0.330
50 150.00 1200.00 233 118 3.100 10000.000 0.000 4.000 15000.000 0.000 0.330
51 153.00 1200.00 237 107 3.100 10000.000 0.000 4.000 15000.000 0.000 0.330
52 156.00 1200.00 231 146 3.100 10000.000 0.000 4.000 15000.000 0.000 0.330
53 159.00 1200.00 202 247 3.100 10000.000 0.000 4.000 15000.000 0.000 0.330
54 162.00 1200.00 184 402 3.100 10000.000 0.000 4.000 15000.000 0.000 0.330
55 165.00 1200.00 147 505 3.100 10000.000 0.000 4.000 15000.000 0.000 0.330
56 168.00 1200.00 145 665 3.100 10000.000 0.000 4.000 15000.000 0.000 0.330
57 171.00 1200.00 115 773 3.100 10000.000 0.000 4.000 15000.000 0.000 0.330
58 174.00 1200.00 85 915 3.100 10000.000 0.000 4.000 15000.000 0.000 0.330
59 177.00 1200.00 86 936 3.100 10000.000 0.000 4.000 15000.000 0.000 0.330
60 180.00 1200.00 105 1009 3.100 10000.000 0.000 4.000 15000.000 0.000 0.330
61 183.00 1200.00 74 982 3.100 10000.000 0.000 4.000 15000.000 0.000 0.330
62 186.00 1200.00 102 954 3.100 10000.000 0.000 4.000 15000.000 0.000 0.330
63 189.00 1200.00 96 848 3.100 10000.000 0.000 4.000 15000.000 0.000 0.330
64 192.00 1200.00 127 746 3.100 10000.000 0.000 4.000 15000.000 0.000 0.330
65 195.00 1200.00 133 596 3.100 10000.000 0.000 4.000 15000.000 0.000 0.330
66 198.00 1200.00 160 462 3.100 10000.000 0.000 4.000 15000.000 0.000 0.330
67 201.00 1200.00 181 286 3.100 10000.000 0.000 4.000 15000.000 0.000 0.330
68 204.00 1200.00 184 190 3.100 10000.000 0.000 4.000 15000.000 0.000 0.330
69 207.00 1200.00 200 145 3.100 10000.000 0.000 4.000 15000.000 0.000 0.330
70 210.00 1200.00 194 107 3.100 10000.000 0.000 4.000 15000.000 0.000 0.330
71 213.00 1200.00 205 117 3.100 10000.000 0.000 4.000 15000.000 0.000 0.330
72 216.00 1200.00 154 119 3.100 10000.000 0.000 4.000 15000.000 0.000 0.330
73 219.00 1200.00 163 135 3.100 10000.000 0.000 4.000 15000.000 0.000 0.330
74 222.00 1200.00 130 97 3.100 10000.000 0.000 4.000 15000.000 0.000 0.330
75 225.00 1200.00 126 87 3.100 10000.000 0.000 4.000 15000.000 0.000 0.330
76 228.00 1200.00 124 117 3.100 10000.000 0.000 4.000 15000.000 0.000 0.330
77 231.00 1200.00 113 187 3.100 10000.000 0.000 4.000 15000.000 0.000 0.330
78 234.00 1200.00 108 277 3.100 10000.000 0.000 4.000 15000.000 0.000 0.330
79 237.00 1200.00 139 419 3.100 10000.000 0.000 4.000 15000.000 0.000 0.330
80 240.00 1200.00 140 575 3.100 10000.000 0.000 4.000 15000.000 0.000 0.330
81 243.00 1200.00 121 713 3.100 10000.000 0.000 4.000 15000.000 0.000 0.330
82 246.00 1200.00 123 776 3.100 10000.000 0.000 4.000 15000.000 0.000 0.330
83 249.00 1200.00 130 871 3.100 10000.000 0.000 4.000 15000.000 0.000 0.330
84 252.00 1200.00 126 900 3.100 10000.000 0.000 4.000 15000.000 0.000 0.330
85 255.00 1200.00 154 871 3.100 10000.000 0.000 4.000 15000.000 0.000 0.330
86 258.00 1200.00 148 846 3.100 10000.000 0.000 4.000 15000.000 0.000 0.330
87 261.00 1200.00 125 733 3.100 10000.000 0.000 4.000 15000.000 0.000 0.330
88 264.00 1200.00 130 688 3.100 10000.000 0.000 4.000 15000.000 0.000 0.330
89 267.00 1200.00 126 521 3.100 10000.000 0.000 4.000 15000.000 0.000 0.330
90 270.00 1200.00 99 424 3.100 10000.000 0.000 4.000 15000.000 0.000 0.330
91 273.00 1200.00 126 293 3.100 10000.000 0.000 4.000 15000.000 0.000 0.330
92 276.00 1200.00 119 183 3.100 10000.000 0.000 4.000 15000.000 0.000 0.330
93 279.00 1200.00 108 134 3.100 10000.000 0.000 4.000 15000.000 0.000 0.330
94 282.00 1200.00 103 98 3.100 10000.000 0.000 4.000 15000.000 0.000 0.330
95 285.00 1200.00 134 107 3.100 10000.000 0.000 4.000 15000.000 0.000 0.330
96 288.00 1200.00 129 123 3.100 10000.000 0.000 4.000 15000.000 0.000 0.330
97 291.00 1200.00 114 122 3.100 10000.000 0.000 4.000 15000.000 0.000 0.330
98 294.00 1200.00 103 157 3.100 10000.000 0.000 4.000 15000.000 0.000 0.330
99 297.00 1200.00 107 264 3.100 10000.000 0.000 4.000 15000.000 0.000 0.330
100 300.00 1200.00 117 412 3.100 10000.000 0.000 4.000 15000.000 0.000 0.330
101 303.00 1200.00 112 526 3.100 10000.000 0.000 4.000 15000.000 0.000 0.330
102 306.00 1200.00 125 700 3.100 10000.000 0.000 4.000 15000.000 0.000 0.330
103 309.00 1200.00 116 733 3.100 10000.000 0.000 4.000 15000.000 0.000 0.330
104 312.00 1200.00 135 846 3.100 10000.000 0.000 4.000 15000.000 0.000 0.330
105 315.00 1200.00 130 808 3.100 10000.000 0.000 4.000 15000.000 0.000 0.330
106 318.00 1200.00 143 657 3.100 10000.000 0.000 4.000 15000.000 0.000 0.330
107 321.00 1200.00 121 503 3.100 10000.000 0.000 4.000 15000.000 0.000 0.330
108 324.00 1200.00 117 384 3.100 10000.000 0.000 4.000 15000.000 0.000 0.330
109 327.00 1200.00 118 258 3.100 10000.000 0.000 4.000 15000.000 0.000 0.330
110 330.00 1200.00 137 285 3.100 10000.000 0.000 4.000 15000.000 0.000 0.330
111 333.00 1200.00 144 263 3.100 10000.000 0.000 4.000 15000.000 0.000 0.330
112 336.00 1200.00 110 288 3.100 10000.000 0.000 4.000 15000.000 0.000 0.330
113 339.00 1200.00 125 364 3.100 10000.000 0.000 4.000 15000.000 0.000 0.330
114 342.00 1200.00 119 414 3.100 10000.000 0.000 4.000 15000.000 0.000 0.330
115 345.00 1200.00 119 425 3.100 10000.000 0.000 4.000 15000.000 0.000 0.330
116 348.00 1200.00 129 459 3.100 10000.000 0.000 4.000 15000.000 0.000 0.330
117 351.00 1200.00 128 430 3.100 10000.000 0.000 4.000 15000.000 0.000 0.330
118 354.00 1200.00 123 431 3.100 10000.000 0.000 4.000 15000.000 0.000 0.330
119 357.00 1200.00 135 426 3.100 10000.000 0.000 4.000 15000.000 0.000 0.330
120 360.00 1200.00 124 366 3.100 10000.000 0.000 4.000 15000.000 0.000 0.330
121 363.00 1200.00 112 340 3.100 10000.000 0.000 4.000 15000.000 0.000 0.330
122 366.00 1200.00 116 349 3.100 10000.000 0.000 4.000 15000.000 0.000 0.330
123 369.00 1200.00 124 396 3.100 10000.000 0.000 4.000 15000.000 0.000 0.330
124 372.00 1200.00 126 369 3.100 10000.000 0.000 4.000 15000.000 0.000 0.330
125 375.00 1200.00 145 389 3.100 10000.000 0.000 4.000 15000.000 0.000 0.330
126 378.00 1200.00 151 403 3.100 10000.000 0.000 4.000 15000.000 0.000 0.330
127 381.00 1200.00 160 367 3.100 10000.000 0.000 4.000 15000.000 0.000 0.330
128 384.00 1200.00 166 388 3.100 10000.000 0.000 4.000 15000.000 0.000 0.330
129 387.00 1200.00 163 392 3.100 10000.000 0.000 4.000 15000.000 0.000 0.330
130 390.00 1200.00 161 384 3.100 10000.000 0.000 4.000 15000.000 0.000 0.330
131 393.00 1200.00 152 384 3.100 10000.000 0.000 4.000 15000.000 0.000 0.330
132 396.00 1200.00 166 392 3.100 10000.000 0.000 4.000 15000.000 0.000 0.330
133 399.00 1200.00 136 376 3.100 10000.000 0.000 4.000 15000.000 0.000 0.330
134 402.00 1200.00 139 373 3.100 10000.000 0.000 4.000 15000.000 0.000 0.330
