# BinNR microsec tot-time (s)  O-Beam AUX Ampl_1(V) f_1(Hz) phase_1(deg) Ampl_2(V) f_2(Hz) phase_2(deg) chi(pos)
0 0.00 1200.01 162 400 3.100 10000.000 0.000 4.000 15000.000 0.000 1.329
1 3.00 1200.01 324 826 3.100 10000.000 0.000 4.000 15000.000 0.000 1.329
2 6.00 1200.01 373 803 3.100 10000.000 0.000 4.000 15000.000 0.000 1.329
3 9.00 1200.01 329 796 3.100 10000.000 0.000 4.000 15000.000 0.000 1.329
4 12.00 1200.01 301 814 3.100 10000.000 0.000 4.000 15000.000 0.000 1.329
5 15.00 1200.01 346 801 3.100 10000.000 0.000 4.000 15000.000 0.000 1.329
6 18.00 1200.01 331 839 3.100 10000.000 0.000 4.000 15000.000 0.000 1.329
7 21.00 1200.01 368 792 3.100 10000.000 0.000 4.000 15000.000 0.000 1.329
8 24.00 1200.01 340 827 3.100 10000.000 0.000 4.000 15000.000 0.000 1.329
9 27.00 1200.01 315 779 3.100 10000.000 0.000 4.000 15000.000 0.000 1.329
10 30.00 1200.01 358 804 3.100 10000.000 0.000 4.000 15000.000 0.000 1.329
11 33.00 1200.01 364 780 3.100 10000.000 0.000 4.000 15000.000 0.000 1.329
12 36.00 1200.01 382 830 3.100 10000.000 0.000 4.000 15000.000 0.000 1.329
13 39.00 1200.01 331 854 3.100 10000.000 0.000 4.000 15000.000 0.000 1.329
14 42.00 1200.01 368 821 3.100 10000.000 0.000 4.000 15000.000 0.000 1.329
15 45.00 1200.01 361 835 3.100 10000.000 0.000 4.000 15000.000 0.000 1.329
16 48.00 1200.01 398 844 3.100 10000.000 0.000 4.000 15000.000 0.000 1.329
17 51.00 1200.01 368 834 3.100 10000.000 0.000 4.000 15000.000 0.000 1.329
18 54.00 1200.01 343 809 3.100 10000.000 0.000 4.000 15000.000 0.000 1.329
19 57.00 1200.01 341 712 3.100 10000.000 0.000 4.000 15000.000 0.000 1.329
20 60.00 1200.01 288 767 3.100 10000.000 0.000 4.000 15000.000 0.000 1.329
21 63.00 1200.01 254 751 3.100 10000.000 0.000 4.000 15000.000 0.000 1.329
22 66.00 1200.01 247 771 3.100 10000.000 0.000 4.000 15000.000 0.000 1.329
23 69.00 1200.01 239 786 3.100 10000.000 0.000 4.000 15000.000 0.000 1.329
24 72.00 1200.01 180 782 3.100 10000.000 0.000 4.000 15000.000 0.000 1.329
25 75.00 1200.01 164 716 3.100 10000.000 0.000 4.000 15000.000 0.000 1.329
26 78.00 1200.01 200 705 3.100 10000.000 0.000 4.000 15000.000 0.000 1.329
27 81.00 1200.01 165 624 3.100 10000.000 0.000 4.000 15000.000 0.000 1.329
28 84.00 1200.01 201 593 3.100 10000.000 0.000 4.000 15000.000 0.000 1.329
29 87.00 1200.01 232 558 3.100 10000.000 0.000 4.000 15000.000 0.000 1.329
30 90.00 1200.01 260 660 3.100 10000.000 0.000 4.000 15000.000 0.000 1.329
31 93.00 1200.01 273 611 3.100 10000.000 0.000 4.000 15000.000 0.000 1.329
32 96.00 1200.01 292 731 3.100 10000.000 0.000 4.000 15000.000 0.000 1.329
33 99.00 1200.01 309 780 3.100 10000.000 0.000 4.000 15000.000 0.000 1.329
34 102.00 1200.01 319 831 3.100 10000.000 0.000 4.000 15000.000 0.000 1.329
35 105.00 1200.01 373 874 3.100 10000.000 0.000 4.000 15000.000 0.000 1.329
36 108.00 1200.01 342 915 3.100 10000.000 0.000 4.000 15000.000 0.000 1.329
37 111.00 1200.01 361 906 3.100 10000.000 0.000 4.000 15000.000 0.000 1.329
38 114.00 1200.01 376 910 3.100 10000.000 0.000 4.000 15000.000 0.000 1.329
39 117.00 1200.01 370 851 3.100 10000.000 0.000 4.000 15000.000 0.000 1.329
40 120.00 1200.01 403 799 3.100 10000.000 0.000 4.000 15000.000 0.000 1.329
41 123.00 1200.01 343 731 3.100 10000.000 0.000 4.000 15000.000 0.000 1.329
42 126.00 1200.01 379 691 3.100 10000.000 0.000 4.000 15000.000 0.000 1.329
43 129.00 1200.01 336 733 3.100 10000.000 0.000 4.000 15000.000 0.000 1.329
44 132.00 1200.01 339 809 3.100 10000.000 0.000 4.000 15000.000 0.000 1.329
45 135.00 1200.01 327 898 3.100 10000.000 0.000 4.000 15000.000 0.000 1.329
46 138.00 1200.01 278 1080 3.100 10000.000 0.000 4.000 15000.000 0.000 1.329
47 141.00 1200.01 230 1043 3.100 10000.000 0.000 4.000 15000.000 0.000 1.329
48 144.00 1200.01 253 1077 3.100 10000.000 0.000 4.000 15000.000 0.000 1.329
49 147.00 1200.01 216 1082 3.100 10000.000 0.000 4.000 15000.000 0.000 1.329
50 150.00 1200.01 218 1052 3.100 10000.000 0.000 4.000 15000.000 0.000 1.329
51 153.00 1200.01 210 1047 3.100 10000.000 0.000 4.000 15000.000 0.000 1.329
52 156.00 1200.01 220 1074 3.100 10000.000 0.000 4.000 15000.000 0.000 1.329
53 159.00 1200.01 243 909 3.100 10000.000 0.000 4.000 15000.000 0.000 1.329
54 162.00 1200.01 307 862 3.100 10000.000 0.000 4.000 15000.000 0.000 1.329
55 165.00 1200.01 297 619 3.100 10000.000 0.000 4.000 15000.000 0.000 1.329
56 168.00 1200.01 341 477 3.100 10000.000 0.000 4.000 15000.000 0.000 1.329
57 171.00 1200.01 330 397 3.100 10000.000 0.000 4.000 15000.000 0.000 1.329
58 174.00 1200.01 360 265 3.100 10000.000 0.000 4.000 15000.000 0.000 1.329
59 177.00 1200.01 314 213 3.100 10000.000 0.000 4.000 15000.000 0.000 1.329
60 180.00 1200.01 380 209 3.100 10000.000 0.000 4.000 15000.000 0.000 1.329
61 183.00 1200.01 369 215 3.100 10000.000 0.000 4.000 15000.000 0.000 1.329
62 186.00 1200.01 385 212 3.100 10000.000 0.000 4.000 15000.000 0.000 1.329
63 189.00 1200.01 350 289 3.100 10000.000 0.000 4.000 15000.000 0.000 1.329
64 192.00 1200.01 310 394 3.100 10000.000 0.000 4.000 15000.000 0.000 1.329
65 195.00 1200.01 302 544 3.100 10000.000 0.000 4.000 15000.000 0.000 1.329
66 198.00 1200.01 321 714 3.100 10000.000 0.000 4.000 15000.000 0.000 1.329
67 201.00 1200.01 298 862 3.100 10000.000 0.000 4.000 15000.000 0.000 1.329
68 204.00 1200.01 282 957 3.100 10000.000 0.000 4.000 15000.000 0.000 1.329
69 207.00 1200.01 238 1059 3.100 10000.000 0.000 4.000 15000.000 0.000 1.329
70 210.00 1200.01 241 1063 3.100 10000.000 0.000 4.000 15000.000 0.000 1.329
71 213.00 1200.01 300 1009 3.100 10000.000 0.000 4.000 15000.000 0.000 1.329
72 216.00 1200.01 265 1017 3.100 10000.000 0.000 4.000 15000.000 0.000 1.329
73 219.00 1200.01 301 1062 3.100 10000.000 0.000 4.000 15000.000 0.000 1.329
74 222.00 1200.01 288 1060 3.100 10000.000 0.000 4.000 15000.000 0.000 1.329
75 225.00 1200.01 351 1016 3.100 10000.000 0.000 4.000 15000.000 0.000 1.329
76 228.00 1200.01 350 1048 3.100 10000.000 0.000 4.000 15000.000 0.000 1.329
77 231.00 1200.01 350 1055 3.100 10000.000 0.000 4.000 15000.000 0.000 1.329
78 234.00 1200.01 352 954 3.100 10000.000 0.000 4.000 15000.000 0.000 1.329
79 237.00 1200.01 328 754 3.100 10000.000 0.000 4.000 15000.000 0.000 1.329
80 240.00 1200.01 328 593 3.100 10000.000 0.000 4.000 15000.000 0.000 1.329
81 243.00 1200.01 321 466 3.100 10000.000 0.000 4.000 15000.000 0.000 1.329
82 246.00 1200.01 344 384 3.100 10000.000 0.000 4.000 15000.000 0.000 1.329
83 249.00 1200.01 321 333 3.100 10000.000 0.000 4.000 15000.000 0.000 1.329
84 252.00 1200.01 316 290 3.100 10000.000 0.000 4.000 15000.000 0.000 1.329
85 255.00 1200.01 297 331 3.100 10000.000 0.000 4.000 15000.000 0.000 1.329
86 258.00 1200.01 329 360 3.100 10000.000 0.000 4.000 15000.000 0.000 1.329
87 261.00 1200.01 348 427 3.100 10000.000 0.000 4.000 15000.000 0.000 1.329
88 264.00 1200.01 339 471 3.100 10000.000 0.000 4.000 15000.000 0.000 1.329
89 267.00 1200.01 332 619 3.100 10000.000 0.000 4.000 15000.000 0.000 1.329
90 270.00 1200.01 345 727 3.100 10000.000 0.000 4.000 15000.000 0.000 1.329
91 273.00 1200.01 332 847 3.100 10000.000 0.000 4.000 15000.000 0.000 1.329
92 276.00 1200.01 340 996 3.100 10000.000 0.000 4.000 15000.000 0.000 1.329
93 279.00 1200.01 336 1067 3.100 10000.000 0.000 4.000 15000.000 0.000 1.329
94 282.00 1200.01 336 1056 3.100 10000.000 0.000 4.000 15000.000 0.000 1.329
95 285.00 1200.01 319 1062 3.100 10000.000 0.000 4.000 15000.000 0.000 1.329
96 288.00 1200.01 308 1025 3.100 10000.000 0.000 4.000 15000.000 0.000 1.329
97 291.00 1200.01 339 1074 3.100 10000.000 0.000 4.000 15000.000 0.000 1.329
98 294.00 1200.01 334 1016 3.100 10000.000 0.000 4.000 15000.000 0.000 1.329
99 297.00 1200.01 352 912 3.100 10000.000 0.000 4.000 15000.000 0.000 1.329
100 300.00 1200.01 324 833 3.100 10000.000 0.000 4.000 15000.000 0.000 1.329
101 303.00 1200.01 320 640 3.100 10000.000 0.000 4.000 15000.000 0.000 1.329
102 306.00 1200.01 345 545 3.100 10000.000 0.000 4.000 15000.000 0.000 1.329
103 309.00 1200.01 342 413 3.100 10000.000 0.000 4.000 15000.000 0.000 1.329
104 312.00 1200.01 337 361 3.100 10000.000 0.000 4.000 15000.000 0.000 1.329
105 315.00 1200.01 304 392 3.100 10000.000 0.000 4.000 15000.000 0.000 1.329
106 318.00 1200.01 324 525 3.100 10000.000 0.000 4.000 15000.000 0.000 1.329
107 321.00 1200.01 344 604 3.100 10000.000 0.000 4.000 15000.000 0.000 1.329
108 324.00 1200.01 322 820 3.100 10000.000 0.000 4.000 15000.000 0.000 1.329
109 327.00 1200.01 319 834 3.100 10000.000 0.000 4.000 15000.000 0.000 1.329
110 330.00 1200.01 324 961 3.100 10000.000 0.000 4.000 15000.000 0.000 1.329
111 333.00 1200.01 322 948 3.100 10000.000 0.000 4.000 15000.000 0.000 1.329
112 336.00 1200.01 341 932 3.100 10000.000 0.000 4.000 15000.000 0.000 1.329
113 339.00 1200.01 326 818 3.100 10000.000 0.000 4.000 15000.000 0.000 1.329
114 342.00 1200.01 347 814 3.100 10000.000 0.000 4.000 15000.000 0.000 1.329
115 345.00 1200.01 338 738 3.100 10000.000 0.000 4.000 15000.000 0.000 1.329
116 348.00 1200.01 325 724 3.100 10000.000 0.000 4.000 15000.000 0.000 1.329
117 351.00 1200.01 287 802 3.100 10000.000 0.000 4.000 15000.000 0.000 1.329
118 354.00 1200.01 353 785 3.100 10000.000 0.000 4.000 15000.000 0.000 1.329
119 357.00 1200.01 339 828 3.100 10000.000 0.000 4.000 15000.000 0.000 1.329
120 360.00 1200.01 358 828 3.100 10000.000 0.000 4.000 15000.000 0.000 1.329
121 363.00 1200.01 314 815 3.100 10000.000 0.000 4.000 15000.000 0.000 1.329
122 366.00 1200.01 320 890 3.100 10000.000 0.000 4.000 15000.000 0.000 1.329
123 369.00 1200.01 329 830 3.100 10000.000 0.000 4.000 15000.000 0.000 1.329
124 372.00 1200.01 343 801 3.100 10000.000 0.000 4.000 15000.000 0.000 1.329
125 375.00 1200.01 310 786 3.100 10000.000 0.000 4.000 15000.000 0.000 1.329
126 378.00 1200.01 322 762 3.100 10000.000 0.000 4.000 15000.000 0.000 1.329
127 381.00 1200.01 274 777 3.100 10000.000 0.000 4.000 15000.000 0.000 1.329
128 384.00 1200.01 296 770 3.100 10000.000 0.000 4.000 15000.000 0.000 1.329
129 387.00 1200.01 292 789 3.100 10000.000 0.000 4.000 15000.000 0.000 1.329
130 390.00 1200.01 305 810 3.100 10000.000 0.000 4.000 15000.000 0.000 1.329
131 393.00 1200.01 305 831 3.100 10000.000 0.000 4.000 15000.000 0.000 1.329
132 396.00 1200.01 308 796 3.100 10000.000 0.000 4.000 15000.000 0.000 1.329
133 399.00 1200.01 270 844 3.100 10000.000 0.000 4.000 15000.000 0.000 1.329
134 402.00 1200.01 328 794 3.100 10000.000 0.000 4.000 15000.000 0.000 1.329
