# BinNR microsec tot-time (s)  O-Beam AUX Ampl_1(V) f_1(Hz) phase_1(deg) Ampl_2(V) f_2(Hz) phase_2(deg) chi(pos)
0 0.00 1200.00 114 373 3.100 10000.000 0.000 4.000 15000.000 0.000 -1.505
1 3.00 1200.00 211 689 3.100 10000.000 0.000 4.000 15000.000 0.000 -1.505
2 6.00 1200.00 217 763 3.100 10000.000 0.000 4.000 15000.000 0.000 -1.505
3 9.00 1200.00 211 736 3.100 10000.000 0.000 4.000 15000.000 0.000 -1.505
4 12.00 1200.00 213 801 3.100 10000.000 0.000 4.000 15000.000 0.000 -1.505
5 15.00 1200.00 229 754 3.100 10000.000 0.000 4.000 15000.000 0.000 -1.505
6 18.00 1200.00 254 763 3.100 10000.000 0.000 4.000 15000.000 0.000 -1.505
7 21.00 1200.00 249 734 3.100 10000.000 0.000 4.000 15000.000 0.000 -1.505
8 24.00 1200.00 254 793 3.100 10000.000 0.000 4.000 15000.000 0.000 -1.505
9 27.00 1200.00 190 761 3.100 10000.000 0.000 4.000 15000.000 0.000 -1.505
10 30.00 1200.00 219 769 3.100 10000.000 0.000 4.000 15000.000 0.000 -1.505
11 33.00 1200.00 181 716 3.100 10000.000 0.000 4.000 15000.000 0.000 -1.505
12 36.00 1200.00 156 789 3.100 10000.000 0.000 4.000 15000.000 0.000 -1.505
13 39.00 1200.00 157 768 3.100 10000.000 0.000 4.000 15000.000 0.000 -1.505
14 42.00 1200.00 141 746 3.100 10000.000 0.000 4.000 15000.000 0.000 -1.505
15 45.00 1200.00 148 746 3.100 10000.000 0.000 4.000 15000.000 0.000 -1.505
16 48.00 1200.00 131 853 3.100 10000.000 0.000 4.000 15000.000 0.000 -1.505
17 51.00 1200.00 165 793 3.100 10000.000 0.000 4.000 15000.000 0.000 -1.505
18 54.00 1200.00 176 810 3.100 10000.000 0.000 4.000 15000.000 0.000 -1.505
19 57.00 1200.00 205 800 3.100 10000.000 0.000 4.000 15000.000 0.000 -1.505
20 60.00 1200.00 211 790 3.100 10000.000 0.000 4.000 15000.000 0.000 -1.505
21 63.00 1200.00 270 823 3.100 10000.000 0.000 4.000 15000.000 0.000 -1.505
22 66.00 1200.00 286 759 3.100 10000.000 0.000 4.000 15000.000 0.000 -1.505
23 69.00 1200.00 299 761 3.100 10000.000 0.000 4.000 15000.000 0.000 -1.505
24 72.00 1200.00 338 822 3.100 10000.000 0.000 4.000 15000.000 0.000 -1.505
25 75.00 1200.00 364 860 3.100 10000.000 0.000 4.000 15000.000 0.000 -1.505
26 78.00 1200.00 372 936 3.100 10000.000 0.000 4.000 15000.000 0.000 -1.505
27 81.00 1200.00 348 964 3.100 10000.000 0.000 4.000 15000.000 0.000 -1.505
28 84.00 1200.00 352 922 3.100 10000.000 0.000 4.000 15000.000 0.000 -1.505
29 87.00 1200.00 335 961 3.100 10000.000 0.000 4.000 15000.000 0.000 -1.505
30 90.00 1200.00 315 976 3.100 10000.000 0.000 4.000 15000.000 0.000 -1.505
31 93.00 1200.00 273 889 3.100 10000.000 0.000 4.000 15000.000 0.000 -1.505
32 96.00 1200.00 228 869 3.100 10000.000 0.000 4.000 15000.000 0.000 -1.505
33 99.00 1200.00 187 803 3.100 10000.000 0.000 4.000 15000.000 0.000 -1.505
34 102.00 1200.00 176 753 3.100 10000.000 0.000 4.000 15000.000 0.000 -1.505
35 105.00 1200.00 157 687 3.100 10000.000 0.000 4.000 15000.000 0.000 -1.505
36 108.00 1200.00 118 655 3.100 10000.000 0.000 4.000 15000.000 0.000 -1.505
37 111.00 1200.00 121 591 3.100 10000.000 0.000 4.000 15000.000 0.000 -1.505
38 114.00 1200.00 120 589 3.100 10000.000 0.000 4.000 15000.000 0.000 -1.505
39 117.00 1200.00 99 721 3.100 10000.000 0.000 4.000 15000.000 0.000 -1.505
40 120.00 1200.00 126 814 3.100 10000.000 0.000 4.000 15000.000 0.000 -1.505
41 123.00 1200.00 148 866 3.100 10000.000 0.000 4.000 15000.000 0.000 -1.505
42 126.00 1200.00 169 913 3.100 10000.000 0.000 4.000 15000.000 0.000 -1.505
43 129.00 1200.00 201 866 3.100 10000.000 0.000 4.000 15000.000 0.000 -1.505
44 132.00 1200.00 214 793 3.100 10000.000 0.000 4.000 15000.000 0.000 -1.505
45 135.00 1200.00 250 644 3.100 10000.000 0.000 4.000 15000.000 0.000 -1.505
46 138.00 1200.00 274 455 3.100 10000.000 0.000 4.000 15000.000 0.000 -1.505
47 141.00 1200.00 289 362 3.100 10000.000 0.000 4.000 15000.000 0.000 -1.505
48 144.00 1200.00 326 299 3.100 10000.000 0.000 4.000 15000.000 0.000 -1.505
49 147.00 1200.00 321 291 3.100 10000.000 0.000 4.000 15000.000 0.000 -1.505
50 150.00 1200.00 342 281 3.100 10000.000 0.000 4.000 15000.000 0.000 -1.505
51 153.00 1200.00 337 340 3.100 10000.000 0.000 4.000 15000.000 0.000 -1.505
52 156.00 1200.00 321 445 3.100 10000.000 0.000 4.000 15000.000 0.000 -1.505
53 159.00 1200.00 314 576 3.100 10000.000 0.000 4.000 15000.000 0.000 -1.505
54 162.00 1200.00 300 760 3.100 10000.000 0.000 4.000 15000.000 0.000 -1.505
55 165.00 1200.00 278 878 3.100 10000.000 0.000 4.000 15000.000 0.000 -1.505
56 168.00 1200.00 230 1024 3.100 10000.000 0.000 4.000 15000.000 0.000 -1.505
57 171.00 1200.00 203 981 3.100 10000.000 0.000 4.000 15000.000 0.000 -1.505
58 174.00 1200.00 192 1122 3.100 10000.000 0.000 4.000 15000.000 0.000 -1.505
59 177.00 1200.00 190 1084 3.100 10000.000 0.000 4.000 15000.000 0.000 -1.505
60 180.00 1200.00 148 1088 3.100 10000.000 0.000 4.000 15000.000 0.000 -1.505
61 183.00 1200.00 143 1011 3.100 10000.000 0.000 4.000 15000.000 0.000 -1.505
62 186.00 1200.00 138 1058 3.100 10000.000 0.000 4.000 15000.000 0.000 -1.505
63 189.00 1200.00 151 1053 3.100 10000.000 0.000 4.000 15000.000 0.000 -1.505
64 192.00 1200.00 199 1021 3.100 10000.000 0.000 4.000 15000.000 0.000 -1.505
65 195.00 1200.00 230 948 3.100 10000.000 0.000 4.000 15000.000 0.000 -1.505
66 198.00 1200.00 245 851 3.100 10000.000 0.000 4.000 15000.000 0.000 -1.505
67 201.00 1200.00 294 669 3.100 10000.000 0.000 4.000 15000.000 0.000 -1.505
68 204.00 1200.00 288 502 3.100 10000.000 0.000 4.000 15000.000 0.000 -1.505
69 207.00 1200.00 304 328 3.100 10000.000 0.000 4.000 15000.000 0.000 -1.505
70 210.00 1200.00 315 296 3.100 10000.000 0.000 4.000 15000.000 0.000 -1.505
71 213.00 1200.00 275 235 3.100 10000.000 0.000 4.000 15000.000 0.000 -1.505
72 216.00 1200.00 275 195 3.100 10000.000 0.000 4.000 15000.000 0.000 -1.505
73 219.00 1200.00 245 164 3.100 10000.000 0.000 4.000 15000.000 0.000 -1.505
74 222.00 1200.00 247 197 3.100 10000.000 0.000 4.000 15000.000 0.000 -1.505
75 225.00 1200.00 240 253 3.100 10000.000 0.000 4.000 15000.000 0.000 -1.505
76 228.00 1200.00 257 329 3.100 10000.000 0.000 4.000 15000.000 0.000 -1.505
77 231.00 1200.00 214 486 3.100 10000.000 0.000 4.000 15000.000 0.000 -1.505
78 234.00 1200.00 229 670 3.100 10000.000 0.000 4.000 15000.000 0.000 -1.505
79 237.00 1200.00 215 888 3.100 10000.000 0.000 4.000 15000.000 0.000 -1.505
80 240.00 1200.00 247 933 3.100 10000.000 0.000 4.000 15000.000 0.000 -1.505
81 243.00 1200.00 249 1087 3.100 10000.000 0.000 4.000 15000.000 0.000 -1.505
82 246.00 1200.00 271 1018 3.100 10000.000 0.000 4.000 15000.000 0.000 -1.505
83 249.00 1200.00 236 1065 3.100 10000.000 0.000 4.000 15000.000 0.000 -1.505
84 252.00 1200.00 245 1084 3.100 10000.000 0.000 4.000 15000.000 0.000 -1.505
85 255.00 1200.00 226 1020 3.100 10000.000 0.000 4.000 15000.000 0.000 -1.505
86 258.00 1200.00 221 1013 3.100 10000.000 0.000 4.000 15000.000 0.000 -1.505
87 261.00 1200.00 227 1051 3.100 10000.000 0.000 4.000 15000.000 0.000 -1.505
88 264.00 1200.00 240 986 3.100 10000.000 0.000 4.000 15000.000 0.000 -1.505
89 267.00 1200.00 245 894 3.100 10000.000 0.000 4.000 15000.000 0.000 -1.505
90 270.00 1200.00 227 874 3.100 10000.000 0.000 4.000 15000.000 0.000 -1.505
91 273.00 1200.00 243 619 3.100 10000.000 0.000 4.000 15000.000 0.000 -1.505
92 276.00 1200.00 210 524 3.100 10000.000 0.000 4.000 15000.000 0.000 -1.505
93 279.00 1200.00 269 375 3.100 10000.000 0.000 4.000 15000.000 0.000 -1.505
94 282.00 1200.00 265 300 3.100 10000.000 0.000 4.000 15000.000 0.000 -1.505
95 285.00 1200.00 243 297 3.100 10000.000 0.000 4.000 15000.000 0.000 -1.505
96 288.00 1200.00 229 298 3.100 10000.000 0.000 4.000 15000.000 0.000 -1.505
97 291.00 1200.00 225 344 3.100 10000.000 0.000 4.000 15000.000 0.000 -1.505
98 294.00 1200.00 245 468 3.100 10000.000 0.000 4.000 15000.000 0.000 -1.505
99 297.00 1200.00 232 633 3.100 10000.000 0.000 4.000 15000.000 0.000 -1.505
100 300.00 1200.00 227 771 3.100 10000.000 0.000 4.000 15000.000 0.000 -1.505
101 303.00 1200.00 243 830 3.100 10000.000 0.000 4.000 15000.000 0.000 -1.505
102 306.00 1200.00 277 964 3.100 10000.000 0.000 4.000 15000.000 0.000 -1.505
103 309.00 1200.00 233 1043 3.100 10000.000 0.000 4.000 15000.000 0.000 -1.505
104 312.00 1200.00 217 1064 3.100 10000.000 0.000 4.000 15000.000 0.000 -1.505
105 315.00 1200.00 228 1034 3.100 10000.000 0.000 4.000 15000.000 0.000 -1.505
106 318.00 1200.00 260 992 3.100 10000.000 0.000 4.000 15000.000 0.000 -1.505
107 321.00 1200.00 217 872 3.100 10000.000 0.000 4.000 15000.000 0.000 -1.505
108 324.00 1200.00 246 801 3.100 10000.000 0.000 4.000 15000.000 0.000 -1.505
109 327.00 1200.00 247 651 3.100 10000.000 0.000 4.000 15000.000 0.000 -1.505
110 330.00 1200.00 221 640 3.100 10000.000 0.000 4.000 15000.000 0.000 -1.505
111 333.00 1200.00 235 646 3.100 10000.000 0.000 4.000 15000.000 0.000 -1.505
112 336.00 1200.00 254 699 3.100 10000.000 0.000 4.000 15000.000 0.000 -1.505
113 339.00 1200.00 247 715 3.100 10000.000 0.000 4.000 15000.000 0.000 -1.505
114 342.00 1200.00 228 819 3.100 10000.000 0.000 4.000 15000.000 0.000 -1.505
115 345.00 1200.00 190 793 3.100 10000.000 0.000 4.000 15000.000 0.000 -1.505
116 348.00 1200.00 246 860 3.100 10000.000 0.000 4.000 15000.000 0.000 -1.505
117 351.00 1200.00 228 770 3.100 10000.000 0.000 4.000 15000.000 0.000 -1.505
118 354.00 1200.00 253 829 3.100 10000.000 0.000 4.000 15000.000 0.000 -1.505
119 357.00 1200.00 240 816 3.100 10000.000 0.000 4.000 15000.000 0.000 -1.505
120 360.00 1200.00 259 755 3.100 10000.000 0.000 4.000 15000.000 0.000 -1.505
121 363.00 1200.00 237 728 3.100 10000.000 0.000 4.000 15000.000 0.000 -1.505
122 366.00 1200.00 238 779 3.100 10000.000 0.000 4.000 15000.000 0.000 -1.505
123 369.00 1200.00 225 703 3.100 10000.000 0.000 4.000 15000.000 0.000 -1.505
124 372.00 1200.00 255 782 3.100 10000.000 0.000 4.000 15000.000 0.000 -1.505
125 375.00 1200.00 286 775 3.100 10000.000 0.000 4.000 15000.000 0.000 -1.505
126 378.00 1200.00 268 749 3.100 10000.000 0.000 4.000 15000.000 0.000 -1.505
127 381.00 1200.00 269 768 3.100 10000.000 0.000 4.000 15000.000 0.000 -1.505
128 384.00 1200.00 298 763 3.100 10000.000 0.000 4.000 15000.000 0.000 -1.505
129 387.00 1200.00 276 769 3.100 10000.000 0.000 4.000 15000.000 0.000 -1.505
130 390.00 1200.00 306 815 3.100 10000.000 0.000 4.000 15000.000 0.000 -1.505
131 393.00 1200.00 280 796 3.100 10000.000 0.000 4.000 15000.000 0.000 -1.505
132 396.00 1200.00 253 756 3.100 10000.000 0.000 4.000 15000.000 0.000 -1.505
133 399.00 1200.00 233 778 3.100 10000.000 0.000 4.000 15000.000 0.000 -1.505
134 402.00 1200.00 216 752 3.100 10000.000 0.000 4.000 15000.000 0.000 -1.505
