# BinNR microsec tot-time (s)  O-Beam AUX Ampl_1(V) f_1(Hz) phase_1(deg) Ampl_2(V) f_2(Hz) phase_2(deg) chi(pos)
0 0.00 1200.00 186 517 3.100 10000.000 0.000 4.000 15000.000 0.000 1.000
1 3.00 1200.00 360 1103 3.100 10000.000 0.000 4.000 15000.000 0.000 1.000
2 6.00 1200.00 400 1084 3.100 10000.000 0.000 4.000 15000.000 0.000 1.000
3 9.00 1200.00 339 1068 3.100 10000.000 0.000 4.000 15000.000 0.000 1.000
4 12.00 1200.00 345 1024 3.100 10000.000 0.000 4.000 15000.000 0.000 1.000
5 15.00 1200.00 405 1050 3.100 10000.000 0.000 4.000 15000.000 0.000 1.000
6 18.00 1200.00 378 1082 3.100 10000.000 0.000 4.000 15000.000 0.000 1.000
7 21.00 1200.00 357 1097 3.100 10000.000 0.000 4.000 15000.000 0.000 1.000
8 24.00 1200.00 388 1082 3.100 10000.000 0.000 4.000 15000.000 0.000 1.000
9 27.00 1200.00 375 1105 3.100 10000.000 0.000 4.000 15000.000 0.000 1.000
10 30.00 1200.00 336 1120 3.100 10000.000 0.000 4.000 15000.000 0.000 1.000
11 33.00 1200.00 301 1101 3.100 10000.000 0.000 4.000 15000.000 0.000 1.000
12 36.00 1200.00 336 1077 3.100 10000.000 0.000 4.000 15000.000 0.000 1.000
13 39.00 1200.00 307 1111 3.100 10000.000 0.000 4.000 15000.000 0.000 1.000
14 42.00 1200.00 309 1079 3.100 10000.000 0.000 4.000 15000.000 0.000 1.000
15 45.00 1200.00 281 1101 3.100 10000.000 0.000 4.000 15000.000 0.000 1.000
16 48.00 1200.00 320 1088 3.100 10000.000 0.000 4.000 15000.000 0.000 1.000
17 51.00 1200.00 324 1078 3.100 10000.000 0.000 4.000 15000.000 0.000 1.000
18 54.00 1200.00 325 1043 3.100 10000.000 0.000 4.000 15000.000 0.000 1.000
19 57.00 1200.00 326 1054 3.100 10000.000 0.000 4.000 15000.000 0.000 1.000
20 60.00 1200.00 339 1138 3.100 10000.000 0.000 4.000 15000.000 0.000 1.000
21 63.00 1200.00 341 1056 3.100 10000.000 0.000 4.000 15000.000 0.000 1.000
22 66.00 1200.00 360 1040 3.100 10000.000 0.000 4.000 15000.000 0.000 1.000
23 69.00 1200.00 325 1059 3.100 10000.000 0.000 4.000 15000.000 0.000 1.000
24 72.00 1200.00 331 1156 3.100 10000.000 0.000 4.000 15000.000 0.000 1.000
25 75.00 1200.00 299 1021 3.100 10000.000 0.000 4.000 15000.000 0.000 1.000
26 78.00 1200.00 330 1043 3.100 10000.000 0.000 4.000 15000.000 0.000 1.000
27 81.00 1200.00 324 1025 3.100 10000.000 0.000 4.000 15000.000 0.000 1.000
28 84.00 1200.00 332 1023 3.100 10000.000 0.000 4.000 15000.000 0.000 1.000
29 87.00 1200.00 357 979 3.100 10000.000 0.000 4.000 15000.000 0.000 1.000
30 90.00 1200.00 375 1000 3.100 10000.000 0.000 4.000 15000.000 0.000 1.000
31 93.00 1200.00 332 1035 3.100 10000.000 0.000 4.000 15000.000 0.000 1.000
32 96.00 1200.00 343 1021 3.100 10000.000 0.000 4.000 15000.000 0.000 1.000
33 99.00 1200.00 325 1052 3.100 10000.000 0.000 4.000 15000.000 0.000 1.000
34 102.00 1200.00 304 1107 3.100 10000.000 0.000 4.000 15000.000 0.000 1.000
35 105.00 1200.00 289 1082 3.100 10000.000 0.000 4.000 15000.000 0.000 1.000
36 108.00 1200.00 287 1093 3.100 10000.000 0.000 4.000 15000.000 0.000 1.000
37 111.00 1200.00 263 1110 3.100 10000.000 0.000 4.000 15000.000 0.000 1.000
38 114.00 1200.00 272 1068 3.100 10000.000 0.000 4.000 15000.000 0.000 1.000
39 117.00 1200.00 251 1075 3.100 10000.000 0.000 4.000 15000.000 0.000 1.000
40 120.00 1200.00 264 1105 3.100 10000.000 0.000 4.000 15000.000 0.000 1.000
41 123.00 1200.00 270 1071 3.100 10000.000 0.000 4.000 15000.000 0.000 1.000
42 126.00 1200.00 300 1061 3.100 10000.000 0.000 4.000 15000.000 0.000 1.000
43 129.00 1200.00 327 1006 3.100 10000.000 0.000 4.000 15000.000 0.000 1.000
44 132.00 1200.00 324 1056 3.100 10000.000 0.000 4.000 15000.000 0.000 1.000
45 135.00 1200.00 322 1101 3.100 10000.000 0.000 4.000 15000.000 0.000 1.000
46 138.00 1200.00 346 1014 3.100 10000.000 0.000 4.000 15000.000 0.000 1.000
47 141.00 1200.00 344 853 3.100 10000.000 0.000 4.000 15000.000 0.000 1.000
48 144.00 1200.00 344 883 3.100 10000.000 0.000 4.000 15000.000 0.000 1.000
49 147.00 1200.00 342 840 3.100 10000.000 0.000 4.000 15000.000 0.000 1.000
50 150.00 1200.00 355 877 3.100 10000.000 0.000 4.000 15000.000 0.000 1.000
51 153.00 1200.00 351 900 3.100 10000.000 0.000 4.000 15000.000 0.000 1.000
52 156.00 1200.00 362 1046 3.100 10000.000 0.000 4.000 15000.000 0.000 1.000
53 159.00 1200.00 389 1069 3.100 10000.000 0.000 4.000 15000.000 0.000 1.000
54 162.00 1200.00 363 1066 3.100 10000.000 0.000 4.000 15000.000 0.000 1.000
55 165.00 1200.00 374 1027 3.100 10000.000 0.000 4.000 15000.000 0.000 1.000
56 168.00 1200.00 332 992 3.100 10000.000 0.000 4.000 15000.000 0.000 1.000
57 171.00 1200.00 315 858 3.100 10000.000 0.000 4.000 15000.000 0.000 1.000
58 174.00 1200.00 323 726 3.100 10000.000 0.000 4.000 15000.000 0.000 1.000
59 177.00 1200.00 290 668 3.100 10000.000 0.000 4.000 15000.000 0.000 1.000
60 180.00 1200.00 341 684 3.100 10000.000 0.000 4.000 15000.000 0.000 1.000
61 183.00 1200.00 282 640 3.100 10000.000 0.000 4.000 15000.000 0.000 1.000
62 186.00 1200.00 302 695 3.100 10000.000 0.000 4.000 15000.000 0.000 1.000
63 189.00 1200.00 328 772 3.100 10000.000 0.000 4.000 15000.000 0.000 1.000
64 192.00 1200.00 326 898 3.100 10000.000 0.000 4.000 15000.000 0.000 1.000
65 195.00 1200.00 350 921 3.100 10000.000 0.000 4.000 15000.000 0.000 1.000
66 198.00 1200.00 343 1072 3.100 10000.000 0.000 4.000 15000.000 0.000 1.000
67 201.00 1200.00 323 1021 3.100 10000.000 0.000 4.000 15000.000 0.000 1.000
68 204.00 1200.00 362 1016 3.100 10000.000 0.000 4.000 15000.000 0.000 1.000
69 207.00 1200.00 324 929 3.100 10000.000 0.000 4.000 15000.000 0.000 1.000
70 210.00 1200.00 351 841 3.100 10000.000 0.000 4.000 15000.000 0.000 1.000
71 213.00 1200.00 394 749 3.100 10000.000 0.000 4.000 15000.000 0.000 1.000
72 216.00 1200.00 380 698 3.100 10000.000 0.000 4.000 15000.000 0.000 1.000
73 219.00 1200.00 342 660 3.100 10000.000 0.000 4.000 15000.000 0.000 1.000
74 222.00 1200.00 394 780 3.100 10000.000 0.000 4.000 15000.000 0.000 1.000
75 225.00 1200.00 363 815 3.100 10000.000 0.000 4.000 15000.000 0.000 1.000
76 228.00 1200.00 377 950 3.100 10000.000 0.000 4.000 15000.000 0.000 1.000
77 231.00 1200.00 404 1001 3.100 10000.000 0.000 4.000 15000.000 0.000 1.000
78 234.00 1200.00 427 1106 3.100 10000.000 0.000 4.000 15000.000 0.000 1.000
79 237.00 1200.00 366 1115 3.100 10000.000 0.000 4.000 15000.000 0.000 1.000
80 240.00 1200.00 386 973 3.100 10000.000 0.000 4.000 15000.000 0.000 1.000
81 243.00 1200.00 404 898 3.100 10000.000 0.000 4.000 15000.000 0.000 1.000
82 246.00 1200.00 412 893 3.100 10000.000 0.000 4.000 15000.000 0.000 1.000
83 249.00 1200.00 390 759 3.100 10000.000 0.000 4.000 15000.000 0.000 1.000
84 252.00 1200.00 360 728 3.100 10000.000 0.000 4.000 15000.000 0.000 1.000
85 255.00 1200.00 388 758 3.100 10000.000 0.000 4.000 15000.000 0.000 1.000
86 258.00 1200.00 388 856 3.100 10000.000 0.000 4.000 15000.000 0.000 1.000
87 261.00 1200.00 351 915 3.100 10000.000 0.000 4.000 15000.000 0.000 1.000
88 264.00 1200.00 360 898 3.100 10000.000 0.000 4.000 15000.000 0.000 1.000
89 267.00 1200.00 375 989 3.100 10000.000 0.000 4.000 15000.000 0.000 1.000
90 270.00 1200.00 393 1092 3.100 10000.000 0.000 4.000 15000.000 0.000 1.000
91 273.00 1200.00 395 1063 3.100 10000.000 0.000 4.000 15000.000 0.000 1.000
92 276.00 1200.00 376 989 3.100 10000.000 0.000 4.000 15000.000 0.000 1.000
93 279.00 1200.00 345 925 3.100 10000.000 0.000 4.000 15000.000 0.000 1.000
94 282.00 1200.00 366 915 3.100 10000.000 0.000 4.000 15000.000 0.000 1.000
95 285.00 1200.00 375 866 3.100 10000.000 0.000 4.000 15000.000 0.000 1.000
96 288.00 1200.00 364 887 3.100 10000.000 0.000 4.000 15000.000 0.000 1.000
97 291.00 1200.00 395 895 3.100 10000.000 0.000 4.000 15000.000 0.000 1.000
98 294.00 1200.00 359 1005 3.100 10000.000 0.000 4.000 15000.000 0.000 1.000
99 297.00 1200.00 395 1034 3.100 10000.000 0.000 4.000 15000.000 0.000 1.000
100 300.00 1200.00 392 1126 3.100 10000.000 0.000 4.000 15000.000 0.000 1.000
101 303.00 1200.00 419 1007 3.100 10000.000 0.000 4.000 15000.000 0.000 1.000
102 306.00 1200.00 373 987 3.100 10000.000 0.000 4.000 15000.000 0.000 1.000
103 309.00 1200.00 356 841 3.100 10000.000 0.000 4.000 15000.000 0.000 1.000
104 312.00 1200.00 388 873 3.100 10000.000 0.000 4.000 15000.000 0.000 1.000
105 315.00 1200.00 378 859 3.100 10000.000 0.000 4.000 15000.000 0.000 1.000
106 318.00 1200.00 383 1000 3.100 10000.000 0.000 4.000 15000.000 0.000 1.000
107 321.00 1200.00 375 1009 3.100 10000.000 0.000 4.000 15000.000 0.000 1.000
108 324.00 1200.00 397 1104 3.100 10000.000 0.000 4.000 15000.000 0.000 1.000
109 327.00 1200.00 398 1092 3.100 10000.000 0.000 4.000 15000.000 0.000 1.000
110 330.00 1200.00 364 1065 3.100 10000.000 0.000 4.000 15000.000 0.000 1.000
111 333.00 1200.00 340 1072 3.100 10000.000 0.000 4.000 15000.000 0.000 1.000
112 336.00 1200.00 366 1092 3.100 10000.000 0.000 4.000 15000.000 0.000 1.000
113 339.00 1200.00 397 1077 3.100 10000.000 0.000 4.000 15000.000 0.000 1.000
114 342.00 1200.00 430 1107 3.100 10000.000 0.000 4.000 15000.000 0.000 1.000
115 345.00 1200.00 377 1093 3.100 10000.000 0.000 4.000 15000.000 0.000 1.000
116 348.00 1200.00 409 1088 3.100 10000.000 0.000 4.000 15000.000 0.000 1.000
117 351.00 1200.00 376 1059 3.100 10000.000 0.000 4.000 15000.000 0.000 1.000
118 354.00 1200.00 370 1124 3.100 10000.000 0.000 4.000 15000.000 0.000 1.000
119 357.00 1200.00 359 1034 3.100 10000.000 0.000 4.000 15000.000 0.000 1.000
120 360.00 1200.00 389 1148 3.100 10000.000 0.000 4.000 15000.000 0.000 1.000
121 363.00 1200.00 357 1079 3.100 10000.000 0.000 4.000 15000.000 0.000 1.000
122 366.00 1200.00 381 1069 3.100 10000.000 0.000 4.000 15000.000 0.000 1.000
123 369.00 1200.00 387 1034 3.100 10000.000 0.000 4.000 15000.000 0.000 1.000
124 372.00 1200.00 412 1122 3.100 10000.000 0.000 4.000 15000.000 0.000 1.000
125 375.00 1200.00 395 1083 3.100 10000.000 0.000 4.000 15000.000 0.000 1.000
126 378.00 1200.00 369 1142 3.100 10000.000 0.000 4.000 15000.000 0.000 1.000
127 381.00 1200.00 385 1021 3.100 10000.000 0.000 4.000 15000.000 0.000 1.000
128 384.00 1200.00 401 1100 3.100 10000.000 0.000 4.000 15000.000 0.000 1.000
129 387.00 1200.00 385 1093 3.100 10000.000 0.000 4.000 15000.000 0.000 1.000
130 390.00 1200.00 400 1092 3.100 10000.000 0.000 4.000 15000.000 0.000 1.000
131 393.00 1200.00 354 1089 3.100 10000.000 0.000 4.000 15000.000 0.000 1.000
132 396.00 1200.00 342 1127 3.100 10000.000 0.000 4.000 15000.000 0.000 1.000
133 399.00 1200.00 348 1009 3.100 10000.000 0.000 4.000 15000.000 0.000 1.000
134 402.00 1200.00 409 1074 3.100 10000.000 0.000 4.000 15000.000 0.000 1.000
