# BinNR microsec tot-time (s)  O-Beam AUX Ampl_1(V) f_1(Hz) phase_1(deg) Ampl_2(V) f_2(Hz) phase_2(deg) chi(pos)
0 0.00 1200.01 121 255 3.100 10000.000 0.000 4.000 15000.000 0.000 1.505
1 3.00 1200.01 267 539 3.100 10000.000 0.000 4.000 15000.000 0.000 1.505
2 6.00 1200.01 299 537 3.100 10000.000 0.000 4.000 15000.000 0.000 1.505
3 9.00 1200.01 273 546 3.100 10000.000 0.000 4.000 15000.000 0.000 1.505
4 12.00 1200.01 288 573 3.100 10000.000 0.000 4.000 15000.000 0.000 1.505
5 15.00 1200.01 255 524 3.100 10000.000 0.000 4.000 15000.000 0.000 1.505
6 18.00 1200.01 285 539 3.100 10000.000 0.000 4.000 15000.000 0.000 1.505
7 21.00 1200.01 239 533 3.100 10000.000 0.000 4.000 15000.000 0.000 1.505
8 24.00 1200.01 259 539 3.100 10000.000 0.000 4.000 15000.000 0.000 1.505
9 27.00 1200.01 288 532 3.100 10000.000 0.000 4.000 15000.000 0.000 1.505
10 30.00 1200.01 296 576 3.100 10000.000 0.000 4.000 15000.000 0.000 1.505
11 33.00 1200.01 317 538 3.100 10000.000 0.000 4.000 15000.000 0.000 1.505
12 36.00 1200.01 348 560 3.100 10000.000 0.000 4.000 15000.000 0.000 1.505
13 39.00 1200.01 314 565 3.100 10000.000 0.000 4.000 15000.000 0.000 1.505
14 42.00 1200.01 314 532 3.100 10000.000 0.000 4.000 15000.000 0.000 1.505
15 45.00 1200.01 343 533 3.100 10000.000 0.000 4.000 15000.000 0.000 1.505
16 48.00 1200.01 359 545 3.100 10000.000 0.000 4.000 15000.000 0.000 1.505
17 51.00 1200.01 303 537 3.100 10000.000 0.000 4.000 15000.000 0.000 1.505
18 54.00 1200.01 332 595 3.100 10000.000 0.000 4.000 15000.000 0.000 1.505
19 57.00 1200.01 259 516 3.100 10000.000 0.000 4.000 15000.000 0.000 1.505
20 60.00 1200.01 237 551 3.100 10000.000 0.000 4.000 15000.000 0.000 1.505
21 63.00 1200.01 206 623 3.100 10000.000 0.000 4.000 15000.000 0.000 1.505
22 66.00 1200.01 187 560 3.100 10000.000 0.000 4.000 15000.000 0.000 1.505
23 69.00 1200.01 165 506 3.100 10000.000 0.000 4.000 15000.000 0.000 1.505
24 72.00 1200.01 122 554 3.100 10000.000 0.000 4.000 15000.000 0.000 1.505
25 75.00 1200.01 145 458 3.100 10000.000 0.000 4.000 15000.000 0.000 1.505
26 78.00 1200.01 113 412 3.100 10000.000 0.000 4.000 15000.000 0.000 1.505
27 81.00 1200.01 125 361 3.100 10000.000 0.000 4.000 15000.000 0.000 1.505
28 84.00 1200.01 165 351 3.100 10000.000 0.000 4.000 15000.000 0.000 1.505
29 87.00 1200.01 168 350 3.100 10000.000 0.000 4.000 15000.000 0.000 1.505
30 90.00 1200.01 168 377 3.100 10000.000 0.000 4.000 15000.000 0.000 1.505
31 93.00 1200.01 229 411 3.100 10000.000 0.000 4.000 15000.000 0.000 1.505
32 96.00 1200.01 269 470 3.100 10000.000 0.000 4.000 15000.000 0.000 1.505
33 99.00 1200.01 285 527 3.100 10000.000 0.000 4.000 15000.000 0.000 1.505
34 102.00 1200.01 334 642 3.100 10000.000 0.000 4.000 15000.000 0.000 1.505
35 105.00 1200.01 303 633 3.100 10000.000 0.000 4.000 15000.000 0.000 1.505
36 108.00 1200.01 363 701 3.100 10000.000 0.000 4.000 15000.000 0.000 1.505
37 111.00 1200.01 379 707 3.100 10000.000 0.000 4.000 15000.000 0.000 1.505
38 114.00 1200.01 356 676 3.100 10000.000 0.000 4.000 15000.000 0.000 1.505
39 117.00 1200.01 366 600 3.100 10000.000 0.000 4.000 15000.000 0.000 1.505
40 120.00 1200.01 331 509 3.100 10000.000 0.000 4.000 15000.000 0.000 1.505
41 123.00 1200.01 357 410 3.100 10000.000 0.000 4.000 15000.000 0.000 1.505
42 126.00 1200.01 333 415 3.100 10000.000 0.000 4.000 15000.000 0.000 1.505
43 129.00 1200.01 314 445 3.100 10000.000 0.000 4.000 15000.000 0.000 1.505
44 132.00 1200.01 279 578 3.100 10000.000 0.000 4.000 15000.000 0.000 1.505
45 135.00 1200.01 212 692 3.100 10000.000 0.000 4.000 15000.000 0.000 1.505
46 138.00 1200.01 197 814 3.100 10000.000 0.000 4.000 15000.000 0.000 1.505
47 141.00 1200.01 208 931 3.100 10000.000 0.000 4.000 15000.000 0.000 1.505
48 144.00 1200.01 173 991 3.100 10000.000 0.000 4.000 15000.000 0.000 1.505
49 147.00 1200.01 155 1007 3.100 10000.000 0.000 4.000 15000.000 0.000 1.505
50 150.00 1200.01 155 1051 3.100 10000.000 0.000 4.000 15000.000 0.000 1.505
51 153.00 1200.01 134 951 3.100 10000.000 0.000 4.000 15000.000 0.000 1.505
52 156.00 1200.01 157 847 3.100 10000.000 0.000 4.000 15000.000 0.000 1.505
53 159.00 1200.01 180 733 3.100 10000.000 0.000 4.000 15000.000 0.000 1.505
54 162.00 1200.01 200 552 3.100 10000.000 0.000 4.000 15000.000 0.000 1.505
55 165.00 1200.01 223 399 3.100 10000.000 0.000 4.000 15000.000 0.000 1.505
56 168.00 1200.01 285 262 3.100 10000.000 0.000 4.000 15000.000 0.000 1.505
57 171.00 1200.01 248 188 3.100 10000.000 0.000 4.000 15000.000 0.000 1.505
58 174.00 1200.01 329 141 3.100 10000.000 0.000 4.000 15000.000 0.000 1.505
59 177.00 1200.01 332 120 3.100 10000.000 0.000 4.000 15000.000 0.000 1.505
60 180.00 1200.01 317 107 3.100 10000.000 0.000 4.000 15000.000 0.000 1.505
61 183.00 1200.01 323 127 3.100 10000.000 0.000 4.000 15000.000 0.000 1.505
62 186.00 1200.01 338 128 3.100 10000.000 0.000 4.000 15000.000 0.000 1.505
63 189.00 1200.01 295 161 3.100 10000.000 0.000 4.000 15000.000 0.000 1.505
64 192.00 1200.01 313 218 3.100 10000.000 0.000 4.000 15000.000 0.000 1.505
65 195.00 1200.01 267 303 3.100 10000.000 0.000 4.000 15000.000 0.000 1.505
66 198.00 1200.01 265 469 3.100 10000.000 0.000 4.000 15000.000 0.000 1.505
67 201.00 1200.01 205 617 3.100 10000.000 0.000 4.000 15000.000 0.000 1.505
68 204.00 1200.01 198 834 3.100 10000.000 0.000 4.000 15000.000 0.000 1.505
69 207.00 1200.01 176 935 3.100 10000.000 0.000 4.000 15000.000 0.000 1.505
70 210.00 1200.01 200 1013 3.100 10000.000 0.000 4.000 15000.000 0.000 1.505
71 213.00 1200.01 187 1001 3.100 10000.000 0.000 4.000 15000.000 0.000 1.505
72 216.00 1200.01 191 1128 3.100 10000.000 0.000 4.000 15000.000 0.000 1.505
73 219.00 1200.01 239 1040 3.100 10000.000 0.000 4.000 15000.000 0.000 1.505
74 222.00 1200.01 243 1057 3.100 10000.000 0.000 4.000 15000.000 0.000 1.505
75 225.00 1200.01 260 978 3.100 10000.000 0.000 4.000 15000.000 0.000 1.505
76 228.00 1200.01 268 976 3.100 10000.000 0.000 4.000 15000.000 0.000 1.505
77 231.00 1200.01 273 853 3.100 10000.000 0.000 4.000 15000.000 0.000 1.505
78 234.00 1200.01 278 689 3.100 10000.000 0.000 4.000 15000.000 0.000 1.505
79 237.00 1200.01 269 501 3.100 10000.000 0.000 4.000 15000.000 0.000 1.505
80 240.00 1200.01 260 393 3.100 10000.000 0.000 4.000 15000.000 0.000 1.505
81 243.00 1200.01 260 280 3.100 10000.000 0.000 4.000 15000.000 0.000 1.505
82 246.00 1200.01 262 209 3.100 10000.000 0.000 4.000 15000.000 0.000 1.505
83 249.00 1200.01 251 156 3.100 10000.000 0.000 4.000 15000.000 0.000 1.505
84 252.00 1200.01 260 155 3.100 10000.000 0.000 4.000 15000.000 0.000 1.505
85 255.00 1200.01 234 140 3.100 10000.000 0.000 4.000 15000.000 0.000 1.505
86 258.00 1200.01 266 183 3.100 10000.000 0.000 4.000 15000.000 0.000 1.505
87 261.00 1200.01 263 222 3.100 10000.000 0.000 4.000 15000.000 0.000 1.505
88 264.00 1200.01 263 284 3.100 10000.000 0.000 4.000 15000.000 0.000 1.505
89 267.00 1200.01 257 378 3.100 10000.000 0.000 4.000 15000.000 0.000 1.505
90 270.00 1200.01 273 478 3.100 10000.000 0.000 4.000 15000.000 0.000 1.505
91 273.00 1200.01 240 618 3.100 10000.000 0.000 4.000 15000.000 0.000 1.505
92 276.00 1200.01 252 838 3.100 10000.000 0.000 4.000 15000.000 0.000 1.505
93 279.00 1200.01 267 921 3.100 10000.000 0.000 4.000 15000.000 0.000 1.505
94 282.00 1200.01 252 936 3.100 10000.000 0.000 4.000 15000.000 0.000 1.505
95 285.00 1200.01 263 969 3.100 10000.000 0.000 4.000 15000.000 0.000 1.505
96 288.00 1200.01 248 1007 3.100 10000.000 0.000 4.000 15000.000 0.000 1.505
97 291.00 1200.01 264 897 3.100 10000.000 0.000 4.000 15000.000 0.000 1.505
98 294.00 1200.01 261 798 3.100 10000.000 0.000 4.000 15000.000 0.000 1.505
99 297.00 1200.01 262 728 3.100 10000.000 0.000 4.000 15000.000 0.000 1.505
100 300.00 1200.01 282 528 3.100 10000.000 0.000 4.000 15000.000 0.000 1.505
101 303.00 1200.01 262 385 3.100 10000.000 0.000 4.000 15000.000 0.000 1.505
102 306.00 1200.01 274 246 3.100 10000.000 0.000 4.000 15000.000 0.000 1.505
103 309.00 1200.01 279 216 3.100 10000.000 0.000 4.000 15000.000 0.000 1.505
104 312.00 1200.01 253 184 3.100 10000.000 0.000 4.000 15000.000 0.000 1.505
105 315.00 1200.01 262 211 3.100 10000.000 0.000 4.000 15000.000 0.000 1.505
106 318.00 1200.01 249 271 3.100 10000.000 0.000 4.000 15000.000 0.000 1.505
107 321.00 1200.01 273 415 3.100 10000.000 0.000 4.000 15000.000 0.000 1.505
108 324.00 1200.01 265 567 3.100 10000.000 0.000 4.000 15000.000 0.000 1.505
109 327.00 1200.01 244 655 3.100 10000.000 0.000 4.000 15000.000 0.000 1.505
110 330.00 1200.01 255 668 3.100 10000.000 0.000 4.000 15000.000 0.000 1.505
111 333.00 1200.01 268 738 3.100 10000.000 0.000 4.000 15000.000 0.000 1.505
112 336.00 1200.01 271 652 3.100 10000.000 0.000 4.000 15000.000 0.000 1.505
113 339.00 1200.01 260 582 3.100 10000.000 0.000 4.000 15000.000 0.000 1.505
114 342.00 1200.01 264 506 3.100 10000.000 0.000 4.000 15000.000 0.000 1.505
115 345.00 1200.01 226 477 3.100 10000.000 0.000 4.000 15000.000 0.000 1.505
116 348.00 1200.01 252 477 3.100 10000.000 0.000 4.000 15000.000 0.000 1.505
117 351.00 1200.01 262 490 3.100 10000.000 0.000 4.000 15000.000 0.000 1.505
118 354.00 1200.01 263 521 3.100 10000.000 0.000 4.000 15000.000 0.000 1.505
119 357.00 1200.01 253 542 3.100 10000.000 0.000 4.000 15000.000 0.000 1.505
120 360.00 1200.01 285 537 3.100 10000.000 0.000 4.000 15000.000 0.000 1.505
121 363.00 1200.01 234 598 3.100 10000.000 0.000 4.000 15000.000 0.000 1.505
122 366.00 1200.01 215 568 3.100 10000.000 0.000 4.000 15000.000 0.000 1.505
123 369.00 1200.01 274 556 3.100 10000.000 0.000 4.000 15000.000 0.000 1.505
124 372.00 1200.01 274 584 3.100 10000.000 0.000 4.000 15000.000 0.000 1.505
125 375.00 1200.01 206 570 3.100 10000.000 0.000 4.000 15000.000 0.000 1.505
126 378.00 1200.01 241 558 3.100 10000.000 0.000 4.000 15000.000 0.000 1.505
127 381.00 1200.01 209 538 3.100 10000.000 0.000 4.000 15000.000 0.000 1.505
128 384.00 1200.01 186 539 3.100 10000.000 0.000 4.000 15000.000 0.000 1.505
129 387.00 1200.01 212 502 3.100 10000.000 0.000 4.000 15000.000 0.000 1.505
130 390.00 1200.01 238 519 3.100 10000.000 0.000 4.000 15000.000 0.000 1.505
131 393.00 1200.01 225 526 3.100 10000.000 0.000 4.000 15000.000 0.000 1.505
132 396.00 1200.01 211 564 3.100 10000.000 0.000 4.000 15000.000 0.000 1.505
133 399.00 1200.01 244 568 3.100 10000.000 0.000 4.000 15000.000 0.000 1.505
134 402.00 1200.01 251 574 3.100 10000.000 0.000 4.000 15000.000 0.000 1.505
