# BinNR microsec tot-time (s)  O-Beam AUX Ampl_1(V) f_1(Hz) phase_1(deg) Ampl_2(V) f_2(Hz) phase_2(deg) chi(pos)
0 0.00 1200.00 167 537 3.100 10000.000 0.000 4.000 15000.000 0.000 -1.329
1 3.00 1200.00 290 992 3.100 10000.000 0.000 4.000 15000.000 0.000 -1.329
2 6.00 1200.00 279 972 3.100 10000.000 0.000 4.000 15000.000 0.000 -1.329
3 9.00 1200.00 304 941 3.100 10000.000 0.000 4.000 15000.000 0.000 -1.329
4 12.00 1200.00 305 1022 3.100 10000.000 0.000 4.000 15000.000 0.000 -1.329
5 15.00 1200.00 327 961 3.100 10000.000 0.000 4.000 15000.000 0.000 -1.329
6 18.00 1200.00 306 966 3.100 10000.000 0.000 4.000 15000.000 0.000 -1.329
7 21.00 1200.00 282 925 3.100 10000.000 0.000 4.000 15000.000 0.000 -1.329
8 24.00 1200.00 307 963 3.100 10000.000 0.000 4.000 15000.000 0.000 -1.329
9 27.00 1200.00 290 954 3.100 10000.000 0.000 4.000 15000.000 0.000 -1.329
10 30.00 1200.00 285 1011 3.100 10000.000 0.000 4.000 15000.000 0.000 -1.329
11 33.00 1200.00 263 993 3.100 10000.000 0.000 4.000 15000.000 0.000 -1.329
12 36.00 1200.00 229 973 3.100 10000.000 0.000 4.000 15000.000 0.000 -1.329
13 39.00 1200.00 202 1000 3.100 10000.000 0.000 4.000 15000.000 0.000 -1.329
14 42.00 1200.00 220 1026 3.100 10000.000 0.000 4.000 15000.000 0.000 -1.329
15 45.00 1200.00 203 948 3.100 10000.000 0.000 4.000 15000.000 0.000 -1.329
16 48.00 1200.00 202 1017 3.100 10000.000 0.000 4.000 15000.000 0.000 -1.329
17 51.00 1200.00 223 975 3.100 10000.000 0.000 4.000 15000.000 0.000 -1.329
18 54.00 1200.00 237 1022 3.100 10000.000 0.000 4.000 15000.000 0.000 -1.329
19 57.00 1200.00 250 993 3.100 10000.000 0.000 4.000 15000.000 0.000 -1.329
20 60.00 1200.00 314 991 3.100 10000.000 0.000 4.000 15000.000 0.000 -1.329
21 63.00 1200.00 303 939 3.100 10000.000 0.000 4.000 15000.000 0.000 -1.329
22 66.00 1200.00 321 980 3.100 10000.000 0.000 4.000 15000.000 0.000 -1.329
23 69.00 1200.00 345 977 3.100 10000.000 0.000 4.000 15000.000 0.000 -1.329
24 72.00 1200.00 331 971 3.100 10000.000 0.000 4.000 15000.000 0.000 -1.329
25 75.00 1200.00 342 1015 3.100 10000.000 0.000 4.000 15000.000 0.000 -1.329
26 78.00 1200.00 397 1099 3.100 10000.000 0.000 4.000 15000.000 0.000 -1.329
27 81.00 1200.00 373 1071 3.100 10000.000 0.000 4.000 15000.000 0.000 -1.329
28 84.00 1200.00 393 1072 3.100 10000.000 0.000 4.000 15000.000 0.000 -1.329
29 87.00 1200.00 369 1076 3.100 10000.000 0.000 4.000 15000.000 0.000 -1.329
30 90.00 1200.00 353 1049 3.100 10000.000 0.000 4.000 15000.000 0.000 -1.329
31 93.00 1200.00 358 1025 3.100 10000.000 0.000 4.000 15000.000 0.000 -1.329
32 96.00 1200.00 301 1009 3.100 10000.000 0.000 4.000 15000.000 0.000 -1.329
33 99.00 1200.00 259 986 3.100 10000.000 0.000 4.000 15000.000 0.000 -1.329
34 102.00 1200.00 226 963 3.100 10000.000 0.000 4.000 15000.000 0.000 -1.329
35 105.00 1200.00 180 958 3.100 10000.000 0.000 4.000 15000.000 0.000 -1.329
36 108.00 1200.00 178 856 3.100 10000.000 0.000 4.000 15000.000 0.000 -1.329
37 111.00 1200.00 148 826 3.100 10000.000 0.000 4.000 15000.000 0.000 -1.329
38 114.00 1200.00 173 931 3.100 10000.000 0.000 4.000 15000.000 0.000 -1.329
39 117.00 1200.00 149 900 3.100 10000.000 0.000 4.000 15000.000 0.000 -1.329
40 120.00 1200.00 170 996 3.100 10000.000 0.000 4.000 15000.000 0.000 -1.329
41 123.00 1200.00 210 1027 3.100 10000.000 0.000 4.000 15000.000 0.000 -1.329
42 126.00 1200.00 229 1015 3.100 10000.000 0.000 4.000 15000.000 0.000 -1.329
43 129.00 1200.00 263 996 3.100 10000.000 0.000 4.000 15000.000 0.000 -1.329
44 132.00 1200.00 281 980 3.100 10000.000 0.000 4.000 15000.000 0.000 -1.329
45 135.00 1200.00 285 813 3.100 10000.000 0.000 4.000 15000.000 0.000 -1.329
46 138.00 1200.00 308 768 3.100 10000.000 0.000 4.000 15000.000 0.000 -1.329
47 141.00 1200.00 330 565 3.100 10000.000 0.000 4.000 15000.000 0.000 -1.329
48 144.00 1200.00 370 514 3.100 10000.000 0.000 4.000 15000.000 0.000 -1.329
49 147.00 1200.00 355 489 3.100 10000.000 0.000 4.000 15000.000 0.000 -1.329
50 150.00 1200.00 378 521 3.100 10000.000 0.000 4.000 15000.000 0.000 -1.329
51 153.00 1200.00 373 614 3.100 10000.000 0.000 4.000 15000.000 0.000 -1.329
52 156.00 1200.00 380 683 3.100 10000.000 0.000 4.000 15000.000 0.000 -1.329
53 159.00 1200.00 325 869 3.100 10000.000 0.000 4.000 15000.000 0.000 -1.329
54 162.00 1200.00 352 1020 3.100 10000.000 0.000 4.000 15000.000 0.000 -1.329
55 165.00 1200.00 341 1050 3.100 10000.000 0.000 4.000 15000.000 0.000 -1.329
56 168.00 1200.00 306 993 3.100 10000.000 0.000 4.000 15000.000 0.000 -1.329
57 171.00 1200.00 275 1006 3.100 10000.000 0.000 4.000 15000.000 0.000 -1.329
58 174.00 1200.00 243 983 3.100 10000.000 0.000 4.000 15000.000 0.000 -1.329
59 177.00 1200.00 243 907 3.100 10000.000 0.000 4.000 15000.000 0.000 -1.329
60 180.00 1200.00 214 950 3.100 10000.000 0.000 4.000 15000.000 0.000 -1.329
61 183.00 1200.00 200 949 3.100 10000.000 0.000 4.000 15000.000 0.000 -1.329
62 186.00 1200.00 228 960 3.100 10000.000 0.000 4.000 15000.000 0.000 -1.329
63 189.00 1200.00 246 971 3.100 10000.000 0.000 4.000 15000.000 0.000 -1.329
64 192.00 1200.00 269 1070 3.100 10000.000 0.000 4.000 15000.000 0.000 -1.329
65 195.00 1200.00 279 1024 3.100 10000.000 0.000 4.000 15000.000 0.000 -1.329
66 198.00 1200.00 297 1019 3.100 10000.000 0.000 4.000 15000.000 0.000 -1.329
67 201.00 1200.00 321 870 3.100 10000.000 0.000 4.000 15000.000 0.000 -1.329
68 204.00 1200.00 388 788 3.100 10000.000 0.000 4.000 15000.000 0.000 -1.329
69 207.00 1200.00 334 615 3.100 10000.000 0.000 4.000 15000.000 0.000 -1.329
70 210.00 1200.00 354 481 3.100 10000.000 0.000 4.000 15000.000 0.000 -1.329
71 213.00 1200.00 314 396 3.100 10000.000 0.000 4.000 15000.000 0.000 -1.329
72 216.00 1200.00 366 383 3.100 10000.000 0.000 4.000 15000.000 0.000 -1.329
73 219.00 1200.00 348 304 3.100 10000.000 0.000 4.000 15000.000 0.000 -1.329
74 222.00 1200.00 355 414 3.100 10000.000 0.000 4.000 15000.000 0.000 -1.329
75 225.00 1200.00 298 492 3.100 10000.000 0.000 4.000 15000.000 0.000 -1.329
76 228.00 1200.00 306 612 3.100 10000.000 0.000 4.000 15000.000 0.000 -1.329
77 231.00 1200.00 308 755 3.100 10000.000 0.000 4.000 15000.000 0.000 -1.329
78 234.00 1200.00 324 896 3.100 10000.000 0.000 4.000 15000.000 0.000 -1.329
79 237.00 1200.00 293 991 3.100 10000.000 0.000 4.000 15000.000 0.000 -1.329
80 240.00 1200.00 306 1054 3.100 10000.000 0.000 4.000 15000.000 0.000 -1.329
81 243.00 1200.00 326 1083 3.100 10000.000 0.000 4.000 15000.000 0.000 -1.329
82 246.00 1200.00 302 1055 3.100 10000.000 0.000 4.000 15000.000 0.000 -1.329
83 249.00 1200.00 334 1023 3.100 10000.000 0.000 4.000 15000.000 0.000 -1.329
84 252.00 1200.00 350 1004 3.100 10000.000 0.000 4.000 15000.000 0.000 -1.329
85 255.00 1200.00 313 983 3.100 10000.000 0.000 4.000 15000.000 0.000 -1.329
86 258.00 1200.00 324 1103 3.100 10000.000 0.000 4.000 15000.000 0.000 -1.329
87 261.00 1200.00 314 1074 3.100 10000.000 0.000 4.000 15000.000 0.000 -1.329
88 264.00 1200.00 309 1069 3.100 10000.000 0.000 4.000 15000.000 0.000 -1.329
89 267.00 1200.00 297 1073 3.100 10000.000 0.000 4.000 15000.000 0.000 -1.329
90 270.00 1200.00 282 1014 3.100 10000.000 0.000 4.000 15000.000 0.000 -1.329
91 273.00 1200.00 294 863 3.100 10000.000 0.000 4.000 15000.000 0.000 -1.329
92 276.00 1200.00 275 773 3.100 10000.000 0.000 4.000 15000.000 0.000 -1.329
93 279.00 1200.00 306 678 3.100 10000.000 0.000 4.000 15000.000 0.000 -1.329
94 282.00 1200.00 322 573 3.100 10000.000 0.000 4.000 15000.000 0.000 -1.329
95 285.00 1200.00 310 520 3.100 10000.000 0.000 4.000 15000.000 0.000 -1.329
96 288.00 1200.00 339 536 3.100 10000.000 0.000 4.000 15000.000 0.000 -1.329
97 291.00 1200.00 343 601 3.100 10000.000 0.000 4.000 15000.000 0.000 -1.329
98 294.00 1200.00 331 788 3.100 10000.000 0.000 4.000 15000.000 0.000 -1.329
99 297.00 1200.00 330 820 3.100 10000.000 0.000 4.000 15000.000 0.000 -1.329
100 300.00 1200.00 315 978 3.100 10000.000 0.000 4.000 15000.000 0.000 -1.329
101 303.00 1200.00 305 1078 3.100 10000.000 0.000 4.000 15000.000 0.000 -1.329
102 306.00 1200.00 343 1062 3.100 10000.000 0.000 4.000 15000.000 0.000 -1.329
103 309.00 1200.00 326 1083 3.100 10000.000 0.000 4.000 15000.000 0.000 -1.329
104 312.00 1200.00 338 1055 3.100 10000.000 0.000 4.000 15000.000 0.000 -1.329
105 315.00 1200.00 308 1112 3.100 10000.000 0.000 4.000 15000.000 0.000 -1.329
106 318.00 1200.00 316 1041 3.100 10000.000 0.000 4.000 15000.000 0.000 -1.329
107 321.00 1200.00 326 1026 3.100 10000.000 0.000 4.000 15000.000 0.000 -1.329
108 324.00 1200.00 341 966 3.100 10000.000 0.000 4.000 15000.000 0.000 -1.329
109 327.00 1200.00 343 929 3.100 10000.000 0.000 4.000 15000.000 0.000 -1.329
110 330.00 1200.00 323 881 3.100 10000.000 0.000 4.000 15000.000 0.000 -1.329
111 333.00 1200.00 293 925 3.100 10000.000 0.000 4.000 15000.000 0.000 -1.329
112 336.00 1200.00 335 914 3.100 10000.000 0.000 4.000 15000.000 0.000 -1.329
113 339.00 1200.00 303 975 3.100 10000.000 0.000 4.000 15000.000 0.000 -1.329
114 342.00 1200.00 337 1050 3.100 10000.000 0.000 4.000 15000.000 0.000 -1.329
115 345.00 1200.00 302 971 3.100 10000.000 0.000 4.000 15000.000 0.000 -1.329
116 348.00 1200.00 316 1032 3.100 10000.000 0.000 4.000 15000.000 0.000 -1.329
117 351.00 1200.00 309 959 3.100 10000.000 0.000 4.000 15000.000 0.000 -1.329
118 354.00 1200.00 301 997 3.100 10000.000 0.000 4.000 15000.000 0.000 -1.329
119 357.00 1200.00 303 963 3.100 10000.000 0.000 4.000 15000.000 0.000 -1.329
120 360.00 1200.00 310 976 3.100 10000.000 0.000 4.000 15000.000 0.000 -1.329
121 363.00 1200.00 286 975 3.100 10000.000 0.000 4.000 15000.000 0.000 -1.329
122 366.00 1200.00 313 1006 3.100 10000.000 0.000 4.000 15000.000 0.000 -1.329
123 369.00 1200.00 324 947 3.100 10000.000 0.000 4.000 15000.000 0.000 -1.329
124 372.00 1200.00 326 971 3.100 10000.000 0.000 4.000 15000.000 0.000 -1.329
125 375.00 1200.00 317 998 3.100 10000.000 0.000 4.000 15000.000 0.000 -1.329
126 378.00 1200.00 361 998 3.100 10000.000 0.000 4.000 15000.000 0.000 -1.329
127 381.00 1200.00 375 974 3.100 10000.000 0.000 4.000 15000.000 0.000 -1.329
128 384.00 1200.00 374 1000 3.100 10000.000 0.000 4.000 15000.000 0.000 -1.329
129 387.00 1200.00 351 967 3.100 10000.000 0.000 4.000 15000.000 0.000 -1.329
130 390.00 1200.00 334 1021 3.100 10000.000 0.000 4.000 15000.000 0.000 -1.329
131 393.00 1200.00 350 1009 3.100 10000.000 0.000 4.000 15000.000 0.000 -1.329
132 396.00 1200.00 343 977 3.100 10000.000 0.000 4.000 15000.000 0.000 -1.329
133 399.00 1200.00 353 995 3.100 10000.000 0.000 4.000 15000.000 0.000 -1.329
134 402.00 1200.00 297 1035 3.100 10000.000 0.000 4.000 15000.000 0.000 -1.329
