# BinNR microsec tot-time (s)  O-Beam H-beam AUX Ampl(V) f(Hz) phase(deg) chi(pos)
0 0.00 900.00 173 741 2 0.000 3.343 2000.000 2.310
1 25.00 900.00 216 814 0 0.000 3.343 2000.000 2.310
2 50.00 900.00 225 728 1 0.000 3.343 2000.000 2.310
3 75.00 900.00 226 619 1 0.000 3.343 2000.000 2.310
4 100.00 900.00 192 483 2 0.000 3.343 2000.000 2.310
5 125.00 900.00 114 390 2 0.000 3.343 2000.000 2.310
6 150.00 900.00 99 387 2 0.000 3.343 2000.000 2.310
7 175.00 900.00 183 380 1 0.000 3.343 2000.000 2.310
8 200.00 900.00 287 401 1 0.000 3.343 2000.000 2.310
9 225.00 900.00 439 394 6 0.000 3.343 2000.000 2.310
10 250.00 900.00 510 407 3 0.000 3.343 2000.000 2.310
11 275.00 900.00 475 460 1 0.000 3.343 2000.000 2.310
12 300.00 900.00 477 653 0 0.000 3.343 2000.000 2.310
13 325.00 900.00 471 804 2 0.000 3.343 2000.000 2.310
14 350.00 900.00 475 836 5 0.000 3.343 2000.000 2.310
15 375.00 900.00 478 766 3 0.000 3.343 2000.000 2.310
16 400.00 900.00 329 683 3 0.000 3.343 2000.000 2.310
17 425.00 900.00 183 661 1 0.000 3.343 2000.000 2.310
18 450.00 900.00 90 630 4 0.000 3.343 2000.000 2.310
19 475.00 900.00 106 688 3 0.000 3.343 2000.000 2.310
20 500.00 900.00 172 750 2 0.000 3.343 2000.000 2.310
21 525.00 900.00 218 820 0 0.000 3.343 2000.000 2.310
22 550.00 900.00 281 752 4 0.000 3.343 2000.000 2.310
23 575.00 900.00 233 674 2 0.000 3.343 2000.000 2.310
24 600.00 900.00 151 528 3 0.000 3.343 2000.000 2.310
25 625.00 900.00 108 419 3 0.000 3.343 2000.000 2.310
26 650.00 900.00 81 389 2 0.000 3.343 2000.000 2.310
27 675.00 900.00 165 404 1 0.000 3.343 2000.000 2.310
28 700.00 900.00 322 372 0 0.000 3.343 2000.000 2.310
29 725.00 900.00 437 381 0 0.000 3.343 2000.000 2.310
30 750.00 900.00 483 406 2 0.000 3.343 2000.000 2.310
31 775.00 900.00 471 431 1 0.000 3.343 2000.000 2.310
32 800.00 900.00 504 655 1 0.000 3.343 2000.000 2.310
33 825.00 900.00 488 828 1 0.000 3.343 2000.000 2.310
34 850.00 900.00 465 798 3 0.000 3.343 2000.000 2.310
35 875.00 900.00 443 694 0 0.000 3.343 2000.000 2.310
36 900.00 900.00 317 657 3 0.000 3.343 2000.000 2.310
37 925.00 900.00 188 640 3 0.000 3.343 2000.000 2.310
38 950.00 900.00 81 627 3 0.000 3.343 2000.000 2.310
39 975.00 900.00 105 671 1 0.000 3.343 2000.000 2.310
