# BinNR microsec tot-time (s)  O-Beam H-beam AUX Ampl(V) f(Hz) phase(deg) chi(pos)
0 0.00 900.00 111 728 2 0.000 3.343 2000.000 -0.220
1 25.00 900.00 84 638 2 0.000 3.343 2000.000 -0.220
2 50.00 900.00 85 516 3 0.000 3.343 2000.000 -0.220
3 75.00 900.00 80 421 1 0.000 3.343 2000.000 -0.220
4 100.00 900.00 96 419 1 0.000 3.343 2000.000 -0.220
5 125.00 900.00 152 427 1 0.000 3.343 2000.000 -0.220
6 150.00 900.00 310 552 1 0.000 3.343 2000.000 -0.220
7 175.00 900.00 427 615 1 0.000 3.343 2000.000 -0.220
8 200.00 900.00 484 605 4 0.000 3.343 2000.000 -0.220
9 225.00 900.00 449 517 4 0.000 3.343 2000.000 -0.220
10 250.00 900.00 403 472 4 0.000 3.343 2000.000 -0.220
11 275.00 900.00 268 417 1 0.000 3.343 2000.000 -0.220
12 300.00 900.00 284 400 1 0.000 3.343 2000.000 -0.220
13 325.00 900.00 279 520 1 0.000 3.343 2000.000 -0.220
14 350.00 900.00 325 650 2 0.000 3.343 2000.000 -0.220
15 375.00 900.00 407 719 2 0.000 3.343 2000.000 -0.220
16 400.00 900.00 456 798 1 0.000 3.343 2000.000 -0.220
17 425.00 900.00 469 823 0 0.000 3.343 2000.000 -0.220
18 450.00 900.00 322 762 1 0.000 3.343 2000.000 -0.220
19 475.00 900.00 163 781 1 0.000 3.343 2000.000 -0.220
20 500.00 900.00 123 752 3 0.000 3.343 2000.000 -0.220
21 525.00 900.00 79 708 1 0.000 3.343 2000.000 -0.220
22 550.00 900.00 81 502 3 0.000 3.343 2000.000 -0.220
23 575.00 900.00 81 414 3 0.000 3.343 2000.000 -0.220
24 600.00 900.00 114 421 1 0.000 3.343 2000.000 -0.220
25 625.00 900.00 149 479 4 0.000 3.343 2000.000 -0.220
26 650.00 900.00 267 562 5 0.000 3.343 2000.000 -0.220
27 675.00 900.00 438 572 2 0.000 3.343 2000.000 -0.220
28 700.00 900.00 475 589 2 0.000 3.343 2000.000 -0.220
29 725.00 900.00 475 539 2 0.000 3.343 2000.000 -0.220
30 750.00 900.00 332 511 2 0.000 3.343 2000.000 -0.220
31 775.00 900.00 287 431 3 0.000 3.343 2000.000 -0.220
32 800.00 900.00 269 448 0 0.000 3.343 2000.000 -0.220
33 825.00 900.00 303 513 7 0.000 3.343 2000.000 -0.220
34 850.00 900.00 375 638 1 0.000 3.343 2000.000 -0.220
35 875.00 900.00 444 777 3 0.000 3.343 2000.000 -0.220
36 900.00 900.00 518 769 4 0.000 3.343 2000.000 -0.220
37 925.00 900.00 407 839 2 0.000 3.343 2000.000 -0.220
38 950.00 900.00 309 831 3 0.000 3.343 2000.000 -0.220
39 975.00 900.00 198 773 3 0.000 3.343 2000.000 -0.220
