# BinNR microsec tot-time (s)  O-Beam H-beam AUX Ampl(V) f(Hz) phase(deg) chi(pos)
0 0.00 900.00 528 421 1 0.000 3.343 2000.000 -1.219
1 25.00 900.00 489 494 1 0.000 3.343 2000.000 -1.219
2 50.00 900.00 488 643 1 0.000 3.343 2000.000 -1.219
3 75.00 900.00 484 716 3 0.000 3.343 2000.000 -1.219
4 100.00 900.00 445 798 1 0.000 3.343 2000.000 -1.219
5 125.00 900.00 421 726 1 0.000 3.343 2000.000 -1.219
6 150.00 900.00 307 707 2 0.000 3.343 2000.000 -1.219
7 175.00 900.00 191 607 3 0.000 3.343 2000.000 -1.219
8 200.00 900.00 97 680 8 0.000 3.343 2000.000 -1.219
9 225.00 900.00 77 718 1 0.000 3.343 2000.000 -1.219
10 250.00 900.00 171 758 0 0.000 3.343 2000.000 -1.219
11 275.00 900.00 205 813 4 0.000 3.343 2000.000 -1.219
12 300.00 900.00 251 811 3 0.000 3.343 2000.000 -1.219
13 325.00 900.00 258 593 3 0.000 3.343 2000.000 -1.219
14 350.00 900.00 177 508 3 0.000 3.343 2000.000 -1.219
15 375.00 900.00 118 436 1 0.000 3.343 2000.000 -1.219
16 400.00 900.00 71 399 3 0.000 3.343 2000.000 -1.219
17 425.00 900.00 156 364 5 0.000 3.343 2000.000 -1.219
18 450.00 900.00 332 377 1 0.000 3.343 2000.000 -1.219
19 475.00 900.00 420 421 1 0.000 3.343 2000.000 -1.219
20 500.00 900.00 490 416 5 0.000 3.343 2000.000 -1.219
21 525.00 900.00 486 468 2 0.000 3.343 2000.000 -1.219
22 550.00 900.00 448 612 5 0.000 3.343 2000.000 -1.219
23 575.00 900.00 448 732 4 0.000 3.343 2000.000 -1.219
24 600.00 900.00 466 804 3 0.000 3.343 2000.000 -1.219
25 625.00 900.00 479 744 1 0.000 3.343 2000.000 -1.219
26 650.00 900.00 306 702 4 0.000 3.343 2000.000 -1.219
27 675.00 900.00 185 611 4 0.000 3.343 2000.000 -1.219
28 700.00 900.00 111 629 5 0.000 3.343 2000.000 -1.219
29 725.00 900.00 106 683 5 0.000 3.343 2000.000 -1.219
30 750.00 900.00 146 759 1 0.000 3.343 2000.000 -1.219
31 775.00 900.00 212 809 2 0.000 3.343 2000.000 -1.219
32 800.00 900.00 237 764 2 0.000 3.343 2000.000 -1.219
33 825.00 900.00 212 613 2 0.000 3.343 2000.000 -1.219
34 850.00 900.00 178 492 2 0.000 3.343 2000.000 -1.219
35 875.00 900.00 117 402 1 0.000 3.343 2000.000 -1.219
36 900.00 900.00 108 440 1 0.000 3.343 2000.000 -1.219
37 925.00 900.00 180 367 1 0.000 3.343 2000.000 -1.219
38 950.00 900.00 287 406 3 0.000 3.343 2000.000 -1.219
39 975.00 900.00 482 395 4 0.000 3.343 2000.000 -1.219
