# BinNR microsec tot-time (s)  O-Beam H-beam AUX Ampl1(V) f1(Hz) phase1(deg) Ampl1(V) f1(Hz) phase1(deg) chi(pos)
0 0.00 1200.00 82 219 227 0.850 2000.000 0.000 0.850 3000.000 0.000 1.516
1 16.67 1200.00 82 252 237 0.850 2000.000 0.000 0.850 3000.000 0.000 1.516
2 33.33 1200.00 77 269 220 0.850 2000.000 0.000 0.850 3000.000 0.000 1.516
3 50.00 1200.00 82 239 218 0.850 2000.000 0.000 0.850 3000.000 0.000 1.516
4 66.67 1200.00 103 273 240 0.850 2000.000 0.000 0.850 3000.000 0.000 1.516
5 83.33 1200.00 84 294 233 0.850 2000.000 0.000 0.850 3000.000 0.000 1.516
6 100.00 1200.00 87 307 188 0.850 2000.000 0.000 0.850 3000.000 0.000 1.516
7 116.67 1200.00 75 299 244 0.850 2000.000 0.000 0.850 3000.000 0.000 1.516
8 133.33 1200.00 89 297 218 0.850 2000.000 0.000 0.850 3000.000 0.000 1.516
9 150.00 1200.00 71 262 204 0.850 2000.000 0.000 0.850 3000.000 0.000 1.516
10 166.67 1200.00 80 265 235 0.850 2000.000 0.000 0.850 3000.000 0.000 1.516
11 183.33 1200.00 60 218 241 0.850 2000.000 0.000 0.850 3000.000 0.000 1.516
12 200.00 1200.00 62 237 182 0.850 2000.000 0.000 0.850 3000.000 0.000 1.516
13 216.67 1200.00 64 248 232 0.850 2000.000 0.000 0.850 3000.000 0.000 1.516
14 233.33 1200.00 76 245 245 0.850 2000.000 0.000 0.850 3000.000 0.000 1.516
15 250.00 1200.00 65 208 207 0.850 2000.000 0.000 0.850 3000.000 0.000 1.516
16 266.67 1200.00 72 231 227 0.850 2000.000 0.000 0.850 3000.000 0.000 1.516
17 283.33 1200.00 83 227 238 0.850 2000.000 0.000 0.850 3000.000 0.000 1.516
18 300.00 1200.00 67 209 226 0.850 2000.000 0.000 0.850 3000.000 0.000 1.516
19 316.67 1200.00 73 223 209 0.850 2000.000 0.000 0.850 3000.000 0.000 1.516
20 333.33 1200.00 72 252 213 0.850 2000.000 0.000 0.850 3000.000 0.000 1.516
21 350.00 1200.00 78 218 247 0.850 2000.000 0.000 0.850 3000.000 0.000 1.516
22 366.67 1200.00 94 227 249 0.850 2000.000 0.000 0.850 3000.000 0.000 1.516
23 383.33 1200.00 92 259 236 0.850 2000.000 0.000 0.850 3000.000 0.000 1.516
24 400.00 1200.00 78 248 186 0.850 2000.000 0.000 0.850 3000.000 0.000 1.516
25 416.67 1200.00 88 247 223 0.850 2000.000 0.000 0.850 3000.000 0.000 1.516
26 433.33 1200.00 87 216 182 0.850 2000.000 0.000 0.850 3000.000 0.000 1.516
27 450.00 1200.00 87 230 179 0.850 2000.000 0.000 0.850 3000.000 0.000 1.516
28 466.67 1200.00 77 239 191 0.850 2000.000 0.000 0.850 3000.000 0.000 1.516
29 483.33 1200.00 81 230 204 0.850 2000.000 0.000 0.850 3000.000 0.000 1.516
30 500.00 1200.00 85 231 166 0.850 2000.000 0.000 0.850 3000.000 0.000 1.516
31 516.67 1200.00 80 214 165 0.850 2000.000 0.000 0.850 3000.000 0.000 1.516
32 533.33 1200.00 85 224 153 0.850 2000.000 0.000 0.850 3000.000 0.000 1.516
33 550.00 1200.00 71 254 187 0.850 2000.000 0.000 0.850 3000.000 0.000 1.516
34 566.67 1200.00 70 205 215 0.850 2000.000 0.000 0.850 3000.000 0.000 1.516
35 583.33 1200.00 67 214 183 0.850 2000.000 0.000 0.850 3000.000 0.000 1.516
36 600.00 1200.00 58 246 241 0.850 2000.000 0.000 0.850 3000.000 0.000 1.516
37 616.67 1200.00 94 255 210 0.850 2000.000 0.000 0.850 3000.000 0.000 1.516
38 633.33 1200.00 75 254 237 0.850 2000.000 0.000 0.850 3000.000 0.000 1.516
39 650.00 1200.00 74 279 222 0.850 2000.000 0.000 0.850 3000.000 0.000 1.516
40 666.67 1200.00 79 284 227 0.850 2000.000 0.000 0.850 3000.000 0.000 1.516
41 683.33 1200.00 58 290 235 0.850 2000.000 0.000 0.850 3000.000 0.000 1.516
42 700.00 1200.00 72 284 222 0.850 2000.000 0.000 0.850 3000.000 0.000 1.516
43 716.67 1200.00 92 273 214 0.850 2000.000 0.000 0.850 3000.000 0.000 1.516
44 733.33 1200.00 90 294 236 0.850 2000.000 0.000 0.850 3000.000 0.000 1.516
45 750.00 1200.00 85 283 252 0.850 2000.000 0.000 0.850 3000.000 0.000 1.516
46 766.67 1200.00 84 304 213 0.850 2000.000 0.000 0.850 3000.000 0.000 1.516
47 783.33 1200.00 78 274 214 0.850 2000.000 0.000 0.850 3000.000 0.000 1.516
48 800.00 1200.00 75 246 226 0.850 2000.000 0.000 0.850 3000.000 0.000 1.516
49 816.67 1200.00 98 243 224 0.850 2000.000 0.000 0.850 3000.000 0.000 1.516
50 833.34 1200.00 87 224 174 0.850 2000.000 0.000 0.850 3000.000 0.000 1.516
51 850.00 1200.00 84 218 176 0.850 2000.000 0.000 0.850 3000.000 0.000 1.516
52 866.67 1200.00 87 231 180 0.850 2000.000 0.000 0.850 3000.000 0.000 1.516
53 883.34 1200.00 109 245 172 0.850 2000.000 0.000 0.850 3000.000 0.000 1.516
54 900.00 1200.00 85 238 182 0.850 2000.000 0.000 0.850 3000.000 0.000 1.516
55 916.67 1200.00 84 253 177 0.850 2000.000 0.000 0.850 3000.000 0.000 1.516
56 933.34 1200.00 90 209 210 0.850 2000.000 0.000 0.850 3000.000 0.000 1.516
57 950.00 1200.00 70 213 186 0.850 2000.000 0.000 0.850 3000.000 0.000 1.516
58 966.67 1200.00 83 214 207 0.850 2000.000 0.000 0.850 3000.000 0.000 1.516
59 983.34 1200.00 71 231 221 0.850 2000.000 0.000 0.850 3000.000 0.000 1.516
60 1000.00 1200.00 83 252 262 0.850 2000.000 0.000 0.850 3000.000 0.000 1.516
61 1016.67 1200.00 78 243 237 0.850 2000.000 0.000 0.850 3000.000 0.000 1.516
62 1033.34 1200.00 85 241 216 0.850 2000.000 0.000 0.850 3000.000 0.000 1.516
63 1050.00 1200.00 80 292 240 0.850 2000.000 0.000 0.850 3000.000 0.000 1.516
64 1066.67 1200.00 76 290 213 0.850 2000.000 0.000 0.850 3000.000 0.000 1.516
65 1083.34 1200.00 78 311 211 0.850 2000.000 0.000 0.850 3000.000 0.000 1.516
66 1100.00 1200.00 83 263 234 0.850 2000.000 0.000 0.850 3000.000 0.000 1.516
67 1116.67 1200.00 73 302 226 0.850 2000.000 0.000 0.850 3000.000 0.000 1.516
68 1133.34 1200.00 80 293 224 0.850 2000.000 0.000 0.850 3000.000 0.000 1.516
69 1150.00 1200.00 69 273 228 0.850 2000.000 0.000 0.850 3000.000 0.000 1.516
70 1166.67 1200.00 70 256 213 0.850 2000.000 0.000 0.850 3000.000 0.000 1.516
71 1183.34 1200.00 79 236 238 0.850 2000.000 0.000 0.850 3000.000 0.000 1.516
72 1200.00 1200.00 59 215 214 0.850 2000.000 0.000 0.850 3000.000 0.000 1.516
73 1216.67 1200.00 50 247 210 0.850 2000.000 0.000 0.850 3000.000 0.000 1.516
74 1233.34 1200.00 48 236 226 0.850 2000.000 0.000 0.850 3000.000 0.000 1.516
75 1250.00 1200.00 65 235 214 0.850 2000.000 0.000 0.850 3000.000 0.000 1.516
76 1266.67 1200.00 61 221 216 0.850 2000.000 0.000 0.850 3000.000 0.000 1.516
77 1283.34 1200.00 69 243 214 0.850 2000.000 0.000 0.850 3000.000 0.000 1.516
78 1300.00 1200.00 60 202 216 0.850 2000.000 0.000 0.850 3000.000 0.000 1.516
79 1316.67 1200.00 81 228 226 0.850 2000.000 0.000 0.850 3000.000 0.000 1.516
80 1333.34 1200.00 86 222 209 0.850 2000.000 0.000 0.850 3000.000 0.000 1.516
81 1350.00 1200.00 92 228 242 0.850 2000.000 0.000 0.850 3000.000 0.000 1.516
82 1366.67 1200.00 89 247 230 0.850 2000.000 0.000 0.850 3000.000 0.000 1.516
83 1383.34 1200.00 87 249 233 0.850 2000.000 0.000 0.850 3000.000 0.000 1.516
84 1400.00 1200.00 89 239 211 0.850 2000.000 0.000 0.850 3000.000 0.000 1.516
85 1416.67 1200.00 82 246 220 0.850 2000.000 0.000 0.850 3000.000 0.000 1.516
86 1433.34 1200.00 84 225 204 0.850 2000.000 0.000 0.850 3000.000 0.000 1.516
87 1450.00 1200.00 90 214 198 0.850 2000.000 0.000 0.850 3000.000 0.000 1.516
88 1466.67 1200.00 74 248 182 0.850 2000.000 0.000 0.850 3000.000 0.000 1.516
89 1483.34 1200.00 75 223 192 0.850 2000.000 0.000 0.850 3000.000 0.000 1.516
90 1500.00 1200.00 79 215 232 0.850 2000.000 0.000 0.850 3000.000 0.000 1.516
91 1516.67 1200.00 67 201 187 0.850 2000.000 0.000 0.850 3000.000 0.000 1.516
92 1533.34 1200.00 53 203 194 0.850 2000.000 0.000 0.850 3000.000 0.000 1.516
93 1550.00 1200.00 60 242 199 0.850 2000.000 0.000 0.850 3000.000 0.000 1.516
94 1566.67 1200.00 71 205 217 0.850 2000.000 0.000 0.850 3000.000 0.000 1.516
95 1583.34 1200.00 71 225 221 0.850 2000.000 0.000 0.850 3000.000 0.000 1.516
96 1600.00 1200.00 76 226 252 0.850 2000.000 0.000 0.850 3000.000 0.000 1.516
97 1616.67 1200.00 73 233 258 0.850 2000.000 0.000 0.850 3000.000 0.000 1.516
98 1633.34 1200.00 58 249 212 0.850 2000.000 0.000 0.850 3000.000 0.000 1.516
99 1650.00 1200.00 71 262 198 0.850 2000.000 0.000 0.850 3000.000 0.000 1.516
100 1666.67 1200.00 67 310 239 0.850 2000.000 0.000 0.850 3000.000 0.000 1.516
101 1683.34 1200.00 75 297 232 0.850 2000.000 0.000 0.850 3000.000 0.000 1.516
102 1700.00 1200.00 72 293 214 0.850 2000.000 0.000 0.850 3000.000 0.000 1.516
103 1716.67 1200.00 73 284 239 0.850 2000.000 0.000 0.850 3000.000 0.000 1.516
104 1733.34 1200.00 81 320 258 0.850 2000.000 0.000 0.850 3000.000 0.000 1.516
105 1750.00 1200.00 72 284 256 0.850 2000.000 0.000 0.850 3000.000 0.000 1.516
106 1766.67 1200.00 87 275 225 0.850 2000.000 0.000 0.850 3000.000 0.000 1.516
107 1783.34 1200.00 74 270 223 0.850 2000.000 0.000 0.850 3000.000 0.000 1.516
108 1800.00 1200.00 75 271 217 0.850 2000.000 0.000 0.850 3000.000 0.000 1.516
109 1816.67 1200.00 75 252 201 0.850 2000.000 0.000 0.850 3000.000 0.000 1.516
110 1833.34 1200.00 75 233 204 0.850 2000.000 0.000 0.850 3000.000 0.000 1.516
111 1850.00 1200.00 95 225 189 0.850 2000.000 0.000 0.850 3000.000 0.000 1.516
112 1866.67 1200.00 105 235 183 0.850 2000.000 0.000 0.850 3000.000 0.000 1.516
113 1883.34 1200.00 91 250 185 0.850 2000.000 0.000 0.850 3000.000 0.000 1.516
114 1900.00 1200.00 71 197 199 0.850 2000.000 0.000 0.850 3000.000 0.000 1.516
115 1916.67 1200.00 78 230 187 0.850 2000.000 0.000 0.850 3000.000 0.000 1.516
116 1933.34 1200.00 77 229 205 0.850 2000.000 0.000 0.850 3000.000 0.000 1.516
117 1950.00 1200.00 67 248 205 0.850 2000.000 0.000 0.850 3000.000 0.000 1.516
118 1966.67 1200.00 89 225 203 0.850 2000.000 0.000 0.850 3000.000 0.000 1.516
119 1983.34 1200.00 85 212 192 0.850 2000.000 0.000 0.850 3000.000 0.000 1.516
