# BinNR microsec tot-time (s)  O-Beam H-beam AUX Ampl1(V) f1(Hz) phase1(deg) Ampl1(V) f1(Hz) phase1(deg) chi(pos)
0 0.00 1200.00 79 214 215 0.850 2000.000 0.000 0.850 3000.000 0.000 1.362
1 16.67 1200.00 75 217 216 0.850 2000.000 0.000 0.850 3000.000 0.000 1.362
2 33.33 1200.00 84 208 194 0.850 2000.000 0.000 0.850 3000.000 0.000 1.362
3 50.00 1200.00 84 234 213 0.850 2000.000 0.000 0.850 3000.000 0.000 1.362
4 66.67 1200.00 76 231 224 0.850 2000.000 0.000 0.850 3000.000 0.000 1.362
5 83.33 1200.00 78 231 207 0.850 2000.000 0.000 0.850 3000.000 0.000 1.362
6 100.00 1200.00 96 268 237 0.850 2000.000 0.000 0.850 3000.000 0.000 1.362
7 116.67 1200.00 89 267 216 0.850 2000.000 0.000 0.850 3000.000 0.000 1.362
8 133.33 1200.00 78 246 221 0.850 2000.000 0.000 0.850 3000.000 0.000 1.362
9 150.00 1200.00 85 219 235 0.850 2000.000 0.000 0.850 3000.000 0.000 1.362
10 166.67 1200.00 78 246 221 0.850 2000.000 0.000 0.850 3000.000 0.000 1.362
11 183.33 1200.00 87 206 232 0.850 2000.000 0.000 0.850 3000.000 0.000 1.362
12 200.00 1200.00 82 211 205 0.850 2000.000 0.000 0.850 3000.000 0.000 1.362
13 216.67 1200.00 81 262 232 0.850 2000.000 0.000 0.850 3000.000 0.000 1.362
14 233.33 1200.00 92 255 229 0.850 2000.000 0.000 0.850 3000.000 0.000 1.362
15 250.00 1200.00 75 227 201 0.850 2000.000 0.000 0.850 3000.000 0.000 1.362
16 266.67 1200.00 83 221 267 0.850 2000.000 0.000 0.850 3000.000 0.000 1.362
17 283.33 1200.00 73 236 246 0.850 2000.000 0.000 0.850 3000.000 0.000 1.362
18 300.00 1200.00 71 211 221 0.850 2000.000 0.000 0.850 3000.000 0.000 1.362
19 316.67 1200.00 93 219 234 0.850 2000.000 0.000 0.850 3000.000 0.000 1.362
20 333.33 1200.00 89 228 230 0.850 2000.000 0.000 0.850 3000.000 0.000 1.362
21 350.00 1200.00 87 215 215 0.850 2000.000 0.000 0.850 3000.000 0.000 1.362
22 366.67 1200.00 81 233 244 0.850 2000.000 0.000 0.850 3000.000 0.000 1.362
23 383.33 1200.00 78 198 215 0.850 2000.000 0.000 0.850 3000.000 0.000 1.362
24 400.00 1200.00 73 231 204 0.850 2000.000 0.000 0.850 3000.000 0.000 1.362
25 416.67 1200.00 81 199 217 0.850 2000.000 0.000 0.850 3000.000 0.000 1.362
26 433.33 1200.00 84 205 200 0.850 2000.000 0.000 0.850 3000.000 0.000 1.362
27 450.00 1200.00 74 196 203 0.850 2000.000 0.000 0.850 3000.000 0.000 1.362
28 466.67 1200.00 71 217 211 0.850 2000.000 0.000 0.850 3000.000 0.000 1.362
29 483.33 1200.00 97 243 176 0.850 2000.000 0.000 0.850 3000.000 0.000 1.362
30 500.00 1200.00 81 234 216 0.850 2000.000 0.000 0.850 3000.000 0.000 1.362
31 516.67 1200.00 101 211 210 0.850 2000.000 0.000 0.850 3000.000 0.000 1.362
32 533.33 1200.00 71 229 239 0.850 2000.000 0.000 0.850 3000.000 0.000 1.362
33 550.00 1200.00 88 244 214 0.850 2000.000 0.000 0.850 3000.000 0.000 1.362
34 566.67 1200.00 80 257 225 0.850 2000.000 0.000 0.850 3000.000 0.000 1.362
35 583.33 1200.00 82 243 258 0.850 2000.000 0.000 0.850 3000.000 0.000 1.362
36 600.00 1200.00 68 216 205 0.850 2000.000 0.000 0.850 3000.000 0.000 1.362
37 616.67 1200.00 82 195 225 0.850 2000.000 0.000 0.850 3000.000 0.000 1.362
38 633.33 1200.00 70 239 195 0.850 2000.000 0.000 0.850 3000.000 0.000 1.362
39 650.00 1200.00 90 222 214 0.850 2000.000 0.000 0.850 3000.000 0.000 1.362
40 666.67 1200.00 99 226 187 0.850 2000.000 0.000 0.850 3000.000 0.000 1.362
41 683.33 1200.00 87 242 209 0.850 2000.000 0.000 0.850 3000.000 0.000 1.362
42 700.00 1200.00 77 225 183 0.850 2000.000 0.000 0.850 3000.000 0.000 1.362
43 716.67 1200.00 95 258 226 0.850 2000.000 0.000 0.850 3000.000 0.000 1.362
44 733.33 1200.00 83 274 169 0.850 2000.000 0.000 0.850 3000.000 0.000 1.362
45 750.00 1200.00 85 232 208 0.850 2000.000 0.000 0.850 3000.000 0.000 1.362
46 766.67 1200.00 94 209 199 0.850 2000.000 0.000 0.850 3000.000 0.000 1.362
47 783.33 1200.00 88 228 228 0.850 2000.000 0.000 0.850 3000.000 0.000 1.362
48 800.00 1200.00 82 237 224 0.850 2000.000 0.000 0.850 3000.000 0.000 1.362
49 816.67 1200.00 92 233 215 0.850 2000.000 0.000 0.850 3000.000 0.000 1.362
50 833.34 1200.00 91 248 232 0.850 2000.000 0.000 0.850 3000.000 0.000 1.362
51 850.00 1200.00 79 263 202 0.850 2000.000 0.000 0.850 3000.000 0.000 1.362
52 866.67 1200.00 81 261 215 0.850 2000.000 0.000 0.850 3000.000 0.000 1.362
53 883.34 1200.00 78 292 214 0.850 2000.000 0.000 0.850 3000.000 0.000 1.362
54 900.00 1200.00 102 285 231 0.850 2000.000 0.000 0.850 3000.000 0.000 1.362
55 916.67 1200.00 89 277 214 0.850 2000.000 0.000 0.850 3000.000 0.000 1.362
56 933.34 1200.00 84 246 221 0.850 2000.000 0.000 0.850 3000.000 0.000 1.362
57 950.00 1200.00 79 224 220 0.850 2000.000 0.000 0.850 3000.000 0.000 1.362
58 966.67 1200.00 83 247 222 0.850 2000.000 0.000 0.850 3000.000 0.000 1.362
59 983.34 1200.00 74 232 194 0.850 2000.000 0.000 0.850 3000.000 0.000 1.362
60 1000.00 1200.00 92 237 232 0.850 2000.000 0.000 0.850 3000.000 0.000 1.362
61 1016.67 1200.00 104 232 229 0.850 2000.000 0.000 0.850 3000.000 0.000 1.362
62 1033.34 1200.00 74 237 226 0.850 2000.000 0.000 0.850 3000.000 0.000 1.362
63 1050.00 1200.00 87 222 203 0.850 2000.000 0.000 0.850 3000.000 0.000 1.362
64 1066.67 1200.00 74 253 228 0.850 2000.000 0.000 0.850 3000.000 0.000 1.362
65 1083.34 1200.00 89 222 226 0.850 2000.000 0.000 0.850 3000.000 0.000 1.362
66 1100.00 1200.00 87 225 222 0.850 2000.000 0.000 0.850 3000.000 0.000 1.362
67 1116.67 1200.00 79 215 203 0.850 2000.000 0.000 0.850 3000.000 0.000 1.362
68 1133.34 1200.00 86 283 257 0.850 2000.000 0.000 0.850 3000.000 0.000 1.362
69 1150.00 1200.00 89 260 225 0.850 2000.000 0.000 0.850 3000.000 0.000 1.362
70 1166.67 1200.00 78 242 230 0.850 2000.000 0.000 0.850 3000.000 0.000 1.362
71 1183.34 1200.00 71 228 228 0.850 2000.000 0.000 0.850 3000.000 0.000 1.362
72 1200.00 1200.00 65 220 228 0.850 2000.000 0.000 0.850 3000.000 0.000 1.362
73 1216.67 1200.00 80 211 241 0.850 2000.000 0.000 0.850 3000.000 0.000 1.362
74 1233.34 1200.00 81 242 218 0.850 2000.000 0.000 0.850 3000.000 0.000 1.362
75 1250.00 1200.00 68 236 239 0.850 2000.000 0.000 0.850 3000.000 0.000 1.362
76 1266.67 1200.00 78 205 225 0.850 2000.000 0.000 0.850 3000.000 0.000 1.362
77 1283.34 1200.00 67 290 232 0.850 2000.000 0.000 0.850 3000.000 0.000 1.362
78 1300.00 1200.00 65 240 241 0.850 2000.000 0.000 0.850 3000.000 0.000 1.362
79 1316.67 1200.00 86 228 204 0.850 2000.000 0.000 0.850 3000.000 0.000 1.362
80 1333.34 1200.00 83 221 205 0.850 2000.000 0.000 0.850 3000.000 0.000 1.362
81 1350.00 1200.00 72 237 218 0.850 2000.000 0.000 0.850 3000.000 0.000 1.362
82 1366.67 1200.00 83 228 212 0.850 2000.000 0.000 0.850 3000.000 0.000 1.362
83 1383.34 1200.00 78 227 251 0.850 2000.000 0.000 0.850 3000.000 0.000 1.362
84 1400.00 1200.00 80 212 235 0.850 2000.000 0.000 0.850 3000.000 0.000 1.362
85 1416.67 1200.00 69 234 248 0.850 2000.000 0.000 0.850 3000.000 0.000 1.362
86 1433.34 1200.00 80 236 221 0.850 2000.000 0.000 0.850 3000.000 0.000 1.362
87 1450.00 1200.00 84 229 230 0.850 2000.000 0.000 0.850 3000.000 0.000 1.362
88 1466.67 1200.00 81 238 205 0.850 2000.000 0.000 0.850 3000.000 0.000 1.362
89 1483.34 1200.00 81 209 235 0.850 2000.000 0.000 0.850 3000.000 0.000 1.362
90 1500.00 1200.00 79 230 209 0.850 2000.000 0.000 0.850 3000.000 0.000 1.362
91 1516.67 1200.00 89 230 213 0.850 2000.000 0.000 0.850 3000.000 0.000 1.362
92 1533.34 1200.00 74 206 223 0.850 2000.000 0.000 0.850 3000.000 0.000 1.362
93 1550.00 1200.00 88 217 233 0.850 2000.000 0.000 0.850 3000.000 0.000 1.362
94 1566.67 1200.00 89 208 232 0.850 2000.000 0.000 0.850 3000.000 0.000 1.362
95 1583.34 1200.00 72 221 247 0.850 2000.000 0.000 0.850 3000.000 0.000 1.362
96 1600.00 1200.00 78 223 241 0.850 2000.000 0.000 0.850 3000.000 0.000 1.362
97 1616.67 1200.00 57 232 224 0.850 2000.000 0.000 0.850 3000.000 0.000 1.362
98 1633.34 1200.00 84 237 218 0.850 2000.000 0.000 0.850 3000.000 0.000 1.362
99 1650.00 1200.00 70 207 232 0.850 2000.000 0.000 0.850 3000.000 0.000 1.362
100 1666.67 1200.00 71 225 205 0.850 2000.000 0.000 0.850 3000.000 0.000 1.362
101 1683.34 1200.00 84 243 189 0.850 2000.000 0.000 0.850 3000.000 0.000 1.362
102 1700.00 1200.00 89 274 187 0.850 2000.000 0.000 0.850 3000.000 0.000 1.362
103 1716.67 1200.00 86 312 216 0.850 2000.000 0.000 0.850 3000.000 0.000 1.362
104 1733.34 1200.00 87 256 187 0.850 2000.000 0.000 0.850 3000.000 0.000 1.362
105 1750.00 1200.00 81 249 214 0.850 2000.000 0.000 0.850 3000.000 0.000 1.362
106 1766.67 1200.00 87 235 220 0.850 2000.000 0.000 0.850 3000.000 0.000 1.362
107 1783.34 1200.00 66 238 223 0.850 2000.000 0.000 0.850 3000.000 0.000 1.362
108 1800.00 1200.00 85 249 223 0.850 2000.000 0.000 0.850 3000.000 0.000 1.362
109 1816.67 1200.00 87 227 223 0.850 2000.000 0.000 0.850 3000.000 0.000 1.362
110 1833.34 1200.00 79 222 240 0.850 2000.000 0.000 0.850 3000.000 0.000 1.362
111 1850.00 1200.00 87 238 214 0.850 2000.000 0.000 0.850 3000.000 0.000 1.362
112 1866.67 1200.00 82 260 222 0.850 2000.000 0.000 0.850 3000.000 0.000 1.362
113 1883.34 1200.00 93 268 206 0.850 2000.000 0.000 0.850 3000.000 0.000 1.362
114 1900.00 1200.00 89 275 231 0.850 2000.000 0.000 0.850 3000.000 0.000 1.362
115 1916.67 1200.00 85 285 208 0.850 2000.000 0.000 0.850 3000.000 0.000 1.362
116 1933.34 1200.00 81 287 199 0.850 2000.000 0.000 0.850 3000.000 0.000 1.362
117 1950.00 1200.00 89 234 198 0.850 2000.000 0.000 0.850 3000.000 0.000 1.362
118 1966.67 1200.00 83 259 201 0.850 2000.000 0.000 0.850 3000.000 0.000 1.362
119 1983.34 1200.00 74 223 243 0.850 2000.000 0.000 0.850 3000.000 0.000 1.362
