# BinNR microsec tot-time (s)  O-Beam AUX Ampl(V) f(Hz) phase(deg) chi(pos)
0 0.00 1200.00 37 103 2.000 10000.000 0.000 1.099
1 3.00 1200.00 69 241 2.000 10000.000 0.000 1.099
2 6.00 1200.00 81 251 2.000 10000.000 0.000 1.099
3 9.00 1200.00 78 305 2.000 10000.000 0.000 1.099
4 12.00 1200.00 87 324 2.000 10000.000 0.000 1.099
5 15.00 1200.00 103 308 2.000 10000.000 0.000 1.099
6 18.00 1200.00 91 350 2.000 10000.000 0.000 1.099
7 21.00 1200.00 104 297 2.000 10000.000 0.000 1.099
8 24.00 1200.00 91 278 2.000 10000.000 0.000 1.099
9 27.00 1200.00 82 264 2.000 10000.000 0.000 1.099
10 30.00 1200.00 67 269 2.000 10000.000 0.000 1.099
11 33.00 1200.00 97 216 2.000 10000.000 0.000 1.099
12 36.00 1200.00 73 171 2.000 10000.000 0.000 1.099
13 39.00 1200.00 79 154 2.000 10000.000 0.000 1.099
14 42.00 1200.00 72 134 2.000 10000.000 0.000 1.099
15 45.00 1200.00 68 128 2.000 10000.000 0.000 1.099
16 48.00 1200.00 71 119 2.000 10000.000 0.000 1.099
17 51.00 1200.00 80 107 2.000 10000.000 0.000 1.099
18 54.00 1200.00 88 99 2.000 10000.000 0.000 1.099
19 57.00 1200.00 83 106 2.000 10000.000 0.000 1.099
20 60.00 1200.00 94 122 2.000 10000.000 0.000 1.099
21 63.00 1200.00 92 146 2.000 10000.000 0.000 1.099
22 66.00 1200.00 101 134 2.000 10000.000 0.000 1.099
23 69.00 1200.00 94 161 2.000 10000.000 0.000 1.099
24 72.00 1200.00 96 128 2.000 10000.000 0.000 1.099
25 75.00 1200.00 108 124 2.000 10000.000 0.000 1.099
26 78.00 1200.00 86 131 2.000 10000.000 0.000 1.099
27 81.00 1200.00 82 90 2.000 10000.000 0.000 1.099
28 84.00 1200.00 76 96 2.000 10000.000 0.000 1.099
29 87.00 1200.00 76 97 2.000 10000.000 0.000 1.099
30 90.00 1200.00 77 99 2.000 10000.000 0.000 1.099
31 93.00 1200.00 68 116 2.000 10000.000 0.000 1.099
32 96.00 1200.00 84 149 2.000 10000.000 0.000 1.099
33 99.00 1200.00 68 166 2.000 10000.000 0.000 1.099
34 102.00 1200.00 81 169 2.000 10000.000 0.000 1.099
35 105.00 1200.00 61 248 2.000 10000.000 0.000 1.099
36 108.00 1200.00 79 273 2.000 10000.000 0.000 1.099
37 111.00 1200.00 92 314 2.000 10000.000 0.000 1.099
38 114.00 1200.00 88 309 2.000 10000.000 0.000 1.099
39 117.00 1200.00 99 347 2.000 10000.000 0.000 1.099
40 120.00 1200.00 87 341 2.000 10000.000 0.000 1.099
41 123.00 1200.00 81 321 2.000 10000.000 0.000 1.099
42 126.00 1200.00 93 301 2.000 10000.000 0.000 1.099
43 129.00 1200.00 69 252 2.000 10000.000 0.000 1.099
44 132.00 1200.00 82 207 2.000 10000.000 0.000 1.099
45 135.00 1200.00 82 192 2.000 10000.000 0.000 1.099
46 138.00 1200.00 79 164 2.000 10000.000 0.000 1.099
47 141.00 1200.00 79 127 2.000 10000.000 0.000 1.099
48 144.00 1200.00 67 111 2.000 10000.000 0.000 1.099
49 147.00 1200.00 77 105 2.000 10000.000 0.000 1.099
50 150.00 1200.00 73 94 2.000 10000.000 0.000 1.099
51 153.00 1200.00 78 105 2.000 10000.000 0.000 1.099
52 156.00 1200.00 80 109 2.000 10000.000 0.000 1.099
53 159.00 1200.00 87 119 2.000 10000.000 0.000 1.099
54 162.00 1200.00 79 123 2.000 10000.000 0.000 1.099
55 165.00 1200.00 81 144 2.000 10000.000 0.000 1.099
56 168.00 1200.00 101 125 2.000 10000.000 0.000 1.099
57 171.00 1200.00 98 138 2.000 10000.000 0.000 1.099
58 174.00 1200.00 100 104 2.000 10000.000 0.000 1.099
59 177.00 1200.00 89 112 2.000 10000.000 0.000 1.099
60 180.00 1200.00 87 99 2.000 10000.000 0.000 1.099
61 183.00 1200.00 69 86 2.000 10000.000 0.000 1.099
62 186.00 1200.00 81 104 2.000 10000.000 0.000 1.099
63 189.00 1200.00 72 93 2.000 10000.000 0.000 1.099
64 192.00 1200.00 66 119 2.000 10000.000 0.000 1.099
65 195.00 1200.00 56 144 2.000 10000.000 0.000 1.099
66 198.00 1200.00 63 175 2.000 10000.000 0.000 1.099
67 201.00 1200.00 75 190 2.000 10000.000 0.000 1.099
68 204.00 1200.00 94 235 2.000 10000.000 0.000 1.099
69 207.00 1200.00 91 275 2.000 10000.000 0.000 1.099
70 210.00 1200.00 81 307 2.000 10000.000 0.000 1.099
71 213.00 1200.00 102 290 2.000 10000.000 0.000 1.099
72 216.00 1200.00 113 328 2.000 10000.000 0.000 1.099
73 219.00 1200.00 92 316 2.000 10000.000 0.000 1.099
74 222.00 1200.00 93 292 2.000 10000.000 0.000 1.099
75 225.00 1200.00 74 284 2.000 10000.000 0.000 1.099
76 228.00 1200.00 102 230 2.000 10000.000 0.000 1.099
77 231.00 1200.00 98 241 2.000 10000.000 0.000 1.099
78 234.00 1200.00 87 182 2.000 10000.000 0.000 1.099
79 237.00 1200.00 67 172 2.000 10000.000 0.000 1.099
80 240.00 1200.00 80 134 2.000 10000.000 0.000 1.099
81 243.00 1200.00 74 131 2.000 10000.000 0.000 1.099
82 246.00 1200.00 75 113 2.000 10000.000 0.000 1.099
83 249.00 1200.00 85 111 2.000 10000.000 0.000 1.099
84 252.00 1200.00 90 112 2.000 10000.000 0.000 1.099
85 255.00 1200.00 65 108 2.000 10000.000 0.000 1.099
86 258.00 1200.00 79 99 2.000 10000.000 0.000 1.099
87 261.00 1200.00 108 133 2.000 10000.000 0.000 1.099
88 264.00 1200.00 87 131 2.000 10000.000 0.000 1.099
89 267.00 1200.00 103 120 2.000 10000.000 0.000 1.099
90 270.00 1200.00 88 130 2.000 10000.000 0.000 1.099
91 273.00 1200.00 82 145 2.000 10000.000 0.000 1.099
92 276.00 1200.00 87 128 2.000 10000.000 0.000 1.099
93 279.00 1200.00 95 110 2.000 10000.000 0.000 1.099
94 282.00 1200.00 109 80 2.000 10000.000 0.000 1.099
95 285.00 1200.00 66 99 2.000 10000.000 0.000 1.099
96 288.00 1200.00 76 105 2.000 10000.000 0.000 1.099
97 291.00 1200.00 75 106 2.000 10000.000 0.000 1.099
98 294.00 1200.00 84 143 2.000 10000.000 0.000 1.099
99 297.00 1200.00 70 158 2.000 10000.000 0.000 1.099
100 300.00 1200.00 66 160 2.000 10000.000 0.000 1.099
