# BinNR microsec tot-time (s)  O-Beam AUX Ampl(V) f(Hz) phase(deg) chi(pos)
0 0.00 1200.00 74 274 2.000 10000.000 0.000 -0.901
1 3.00 1200.00 171 622 2.000 10000.000 0.000 -0.901
2 6.00 1200.00 195 665 2.000 10000.000 0.000 -0.901
3 9.00 1200.00 196 726 2.000 10000.000 0.000 -0.901
4 12.00 1200.00 204 761 2.000 10000.000 0.000 -0.901
5 15.00 1200.00 236 734 2.000 10000.000 0.000 -0.901
6 18.00 1200.00 244 709 2.000 10000.000 0.000 -0.901
7 21.00 1200.00 189 742 2.000 10000.000 0.000 -0.901
8 24.00 1200.00 205 711 2.000 10000.000 0.000 -0.901
9 27.00 1200.00 207 677 2.000 10000.000 0.000 -0.901
10 30.00 1200.00 184 640 2.000 10000.000 0.000 -0.901
11 33.00 1200.00 159 598 2.000 10000.000 0.000 -0.901
12 36.00 1200.00 136 491 2.000 10000.000 0.000 -0.901
13 39.00 1200.00 134 399 2.000 10000.000 0.000 -0.901
14 42.00 1200.00 129 360 2.000 10000.000 0.000 -0.901
15 45.00 1200.00 100 288 2.000 10000.000 0.000 -0.901
16 48.00 1200.00 122 240 2.000 10000.000 0.000 -0.901
17 51.00 1200.00 99 182 2.000 10000.000 0.000 -0.901
18 54.00 1200.00 81 159 2.000 10000.000 0.000 -0.901
19 57.00 1200.00 96 152 2.000 10000.000 0.000 -0.901
20 60.00 1200.00 91 143 2.000 10000.000 0.000 -0.901
21 63.00 1200.00 96 139 2.000 10000.000 0.000 -0.901
22 66.00 1200.00 85 133 2.000 10000.000 0.000 -0.901
23 69.00 1200.00 89 133 2.000 10000.000 0.000 -0.901
24 72.00 1200.00 86 126 2.000 10000.000 0.000 -0.901
25 75.00 1200.00 78 130 2.000 10000.000 0.000 -0.901
26 78.00 1200.00 87 145 2.000 10000.000 0.000 -0.901
27 81.00 1200.00 85 163 2.000 10000.000 0.000 -0.901
28 84.00 1200.00 92 185 2.000 10000.000 0.000 -0.901
29 87.00 1200.00 103 246 2.000 10000.000 0.000 -0.901
30 90.00 1200.00 115 295 2.000 10000.000 0.000 -0.901
31 93.00 1200.00 127 319 2.000 10000.000 0.000 -0.901
32 96.00 1200.00 141 419 2.000 10000.000 0.000 -0.901
33 99.00 1200.00 129 466 2.000 10000.000 0.000 -0.901
34 102.00 1200.00 177 603 2.000 10000.000 0.000 -0.901
35 105.00 1200.00 159 618 2.000 10000.000 0.000 -0.901
36 108.00 1200.00 172 613 2.000 10000.000 0.000 -0.901
37 111.00 1200.00 195 710 2.000 10000.000 0.000 -0.901
38 114.00 1200.00 214 755 2.000 10000.000 0.000 -0.901
39 117.00 1200.00 213 712 2.000 10000.000 0.000 -0.901
40 120.00 1200.00 232 762 2.000 10000.000 0.000 -0.901
41 123.00 1200.00 222 768 2.000 10000.000 0.000 -0.901
42 126.00 1200.00 185 680 2.000 10000.000 0.000 -0.901
43 129.00 1200.00 195 697 2.000 10000.000 0.000 -0.901
44 132.00 1200.00 225 589 2.000 10000.000 0.000 -0.901
45 135.00 1200.00 171 512 2.000 10000.000 0.000 -0.901
46 138.00 1200.00 157 441 2.000 10000.000 0.000 -0.901
47 141.00 1200.00 148 345 2.000 10000.000 0.000 -0.901
48 144.00 1200.00 131 312 2.000 10000.000 0.000 -0.901
49 147.00 1200.00 147 234 2.000 10000.000 0.000 -0.901
50 150.00 1200.00 114 204 2.000 10000.000 0.000 -0.901
51 153.00 1200.00 110 168 2.000 10000.000 0.000 -0.901
52 156.00 1200.00 85 153 2.000 10000.000 0.000 -0.901
53 159.00 1200.00 86 117 2.000 10000.000 0.000 -0.901
54 162.00 1200.00 91 119 2.000 10000.000 0.000 -0.901
55 165.00 1200.00 100 109 2.000 10000.000 0.000 -0.901
56 168.00 1200.00 85 138 2.000 10000.000 0.000 -0.901
57 171.00 1200.00 90 136 2.000 10000.000 0.000 -0.901
58 174.00 1200.00 81 132 2.000 10000.000 0.000 -0.901
59 177.00 1200.00 93 138 2.000 10000.000 0.000 -0.901
60 180.00 1200.00 91 145 2.000 10000.000 0.000 -0.901
61 183.00 1200.00 92 179 2.000 10000.000 0.000 -0.901
62 186.00 1200.00 106 207 2.000 10000.000 0.000 -0.901
63 189.00 1200.00 85 272 2.000 10000.000 0.000 -0.901
64 192.00 1200.00 117 330 2.000 10000.000 0.000 -0.901
65 195.00 1200.00 141 419 2.000 10000.000 0.000 -0.901
66 198.00 1200.00 131 517 2.000 10000.000 0.000 -0.901
67 201.00 1200.00 152 547 2.000 10000.000 0.000 -0.901
68 204.00 1200.00 192 618 2.000 10000.000 0.000 -0.901
69 207.00 1200.00 173 692 2.000 10000.000 0.000 -0.901
70 210.00 1200.00 192 732 2.000 10000.000 0.000 -0.901
71 213.00 1200.00 218 728 2.000 10000.000 0.000 -0.901
72 216.00 1200.00 213 774 2.000 10000.000 0.000 -0.901
73 219.00 1200.00 195 748 2.000 10000.000 0.000 -0.901
74 222.00 1200.00 223 810 2.000 10000.000 0.000 -0.901
75 225.00 1200.00 216 721 2.000 10000.000 0.000 -0.901
76 228.00 1200.00 204 657 2.000 10000.000 0.000 -0.901
77 231.00 1200.00 203 614 2.000 10000.000 0.000 -0.901
78 234.00 1200.00 181 534 2.000 10000.000 0.000 -0.901
79 237.00 1200.00 156 476 2.000 10000.000 0.000 -0.901
80 240.00 1200.00 143 399 2.000 10000.000 0.000 -0.901
81 243.00 1200.00 156 339 2.000 10000.000 0.000 -0.901
82 246.00 1200.00 119 252 2.000 10000.000 0.000 -0.901
83 249.00 1200.00 114 197 2.000 10000.000 0.000 -0.901
84 252.00 1200.00 119 190 2.000 10000.000 0.000 -0.901
85 255.00 1200.00 96 152 2.000 10000.000 0.000 -0.901
86 258.00 1200.00 100 139 2.000 10000.000 0.000 -0.901
87 261.00 1200.00 86 118 2.000 10000.000 0.000 -0.901
88 264.00 1200.00 81 124 2.000 10000.000 0.000 -0.901
89 267.00 1200.00 83 124 2.000 10000.000 0.000 -0.901
90 270.00 1200.00 84 121 2.000 10000.000 0.000 -0.901
91 273.00 1200.00 92 131 2.000 10000.000 0.000 -0.901
92 276.00 1200.00 89 139 2.000 10000.000 0.000 -0.901
93 279.00 1200.00 73 137 2.000 10000.000 0.000 -0.901
94 282.00 1200.00 102 157 2.000 10000.000 0.000 -0.901
95 285.00 1200.00 76 186 2.000 10000.000 0.000 -0.901
96 288.00 1200.00 99 222 2.000 10000.000 0.000 -0.901
97 291.00 1200.00 97 303 2.000 10000.000 0.000 -0.901
98 294.00 1200.00 112 345 2.000 10000.000 0.000 -0.901
99 297.00 1200.00 137 428 2.000 10000.000 0.000 -0.901
100 300.00 1200.00 100 429 2.000 10000.000 0.000 -0.901
