# BinNR microsec tot-time (s)  O-Beam AUX Ampl(V) f(Hz) phase(deg) chi(pos)
0 0.00 1200.01 123 253 2.000 10000.000 0.000 0.297
1 3.00 1200.01 219 467 2.000 10000.000 0.000 0.297
2 6.00 1200.01 220 371 2.000 10000.000 0.000 0.297
3 9.00 1200.01 173 336 2.000 10000.000 0.000 0.297
4 12.00 1200.01 182 366 2.000 10000.000 0.000 0.297
5 15.00 1200.01 196 328 2.000 10000.000 0.000 0.297
6 18.00 1200.01 172 337 2.000 10000.000 0.000 0.297
7 21.00 1200.01 187 335 2.000 10000.000 0.000 0.297
8 24.00 1200.01 214 365 2.000 10000.000 0.000 0.297
9 27.00 1200.01 188 408 2.000 10000.000 0.000 0.297
10 30.00 1200.01 195 439 2.000 10000.000 0.000 0.297
11 33.00 1200.01 197 504 2.000 10000.000 0.000 0.297
12 36.00 1200.01 243 516 2.000 10000.000 0.000 0.297
13 39.00 1200.01 210 610 2.000 10000.000 0.000 0.297
14 42.00 1200.01 226 625 2.000 10000.000 0.000 0.297
15 45.00 1200.01 248 699 2.000 10000.000 0.000 0.297
16 48.00 1200.01 245 786 2.000 10000.000 0.000 0.297
17 51.00 1200.01 276 728 2.000 10000.000 0.000 0.297
18 54.00 1200.01 287 819 2.000 10000.000 0.000 0.297
19 57.00 1200.01 277 799 2.000 10000.000 0.000 0.297
20 60.00 1200.01 272 776 2.000 10000.000 0.000 0.297
21 63.00 1200.01 263 848 2.000 10000.000 0.000 0.297
22 66.00 1200.01 310 862 2.000 10000.000 0.000 0.297
23 69.00 1200.01 257 819 2.000 10000.000 0.000 0.297
24 72.00 1200.01 295 825 2.000 10000.000 0.000 0.297
25 75.00 1200.01 266 829 2.000 10000.000 0.000 0.297
26 78.00 1200.01 271 835 2.000 10000.000 0.000 0.297
27 81.00 1200.01 280 810 2.000 10000.000 0.000 0.297
28 84.00 1200.01 271 793 2.000 10000.000 0.000 0.297
29 87.00 1200.01 275 722 2.000 10000.000 0.000 0.297
30 90.00 1200.01 274 772 2.000 10000.000 0.000 0.297
31 93.00 1200.01 269 597 2.000 10000.000 0.000 0.297
32 96.00 1200.01 247 581 2.000 10000.000 0.000 0.297
33 99.00 1200.01 216 545 2.000 10000.000 0.000 0.297
34 102.00 1200.01 211 494 2.000 10000.000 0.000 0.297
35 105.00 1200.01 226 404 2.000 10000.000 0.000 0.297
36 108.00 1200.01 195 373 2.000 10000.000 0.000 0.297
37 111.00 1200.01 219 370 2.000 10000.000 0.000 0.297
38 114.00 1200.01 177 311 2.000 10000.000 0.000 0.297
39 117.00 1200.01 184 315 2.000 10000.000 0.000 0.297
40 120.00 1200.01 212 345 2.000 10000.000 0.000 0.297
41 123.00 1200.01 188 315 2.000 10000.000 0.000 0.297
42 126.00 1200.01 208 331 2.000 10000.000 0.000 0.297
43 129.00 1200.01 190 386 2.000 10000.000 0.000 0.297
44 132.00 1200.01 239 478 2.000 10000.000 0.000 0.297
45 135.00 1200.01 196 496 2.000 10000.000 0.000 0.297
46 138.00 1200.01 225 525 2.000 10000.000 0.000 0.297
47 141.00 1200.01 228 663 2.000 10000.000 0.000 0.297
48 144.00 1200.01 294 652 2.000 10000.000 0.000 0.297
49 147.00 1200.01 299 680 2.000 10000.000 0.000 0.297
50 150.00 1200.01 299 754 2.000 10000.000 0.000 0.297
51 153.00 1200.01 254 828 2.000 10000.000 0.000 0.297
52 156.00 1200.01 282 787 2.000 10000.000 0.000 0.297
53 159.00 1200.01 312 812 2.000 10000.000 0.000 0.297
54 162.00 1200.01 300 885 2.000 10000.000 0.000 0.297
55 165.00 1200.01 273 822 2.000 10000.000 0.000 0.297
56 168.00 1200.01 285 905 2.000 10000.000 0.000 0.297
57 171.00 1200.01 276 827 2.000 10000.000 0.000 0.297
58 174.00 1200.01 294 841 2.000 10000.000 0.000 0.297
59 177.00 1200.01 288 786 2.000 10000.000 0.000 0.297
60 180.00 1200.01 329 770 2.000 10000.000 0.000 0.297
61 183.00 1200.01 254 772 2.000 10000.000 0.000 0.297
62 186.00 1200.01 299 818 2.000 10000.000 0.000 0.297
63 189.00 1200.01 291 741 2.000 10000.000 0.000 0.297
64 192.00 1200.01 304 670 2.000 10000.000 0.000 0.297
65 195.00 1200.01 256 628 2.000 10000.000 0.000 0.297
66 198.00 1200.01 271 561 2.000 10000.000 0.000 0.297
67 201.00 1200.01 239 449 2.000 10000.000 0.000 0.297
68 204.00 1200.01 228 466 2.000 10000.000 0.000 0.297
69 207.00 1200.01 217 390 2.000 10000.000 0.000 0.297
70 210.00 1200.01 197 367 2.000 10000.000 0.000 0.297
71 213.00 1200.01 210 332 2.000 10000.000 0.000 0.297
72 216.00 1200.01 204 343 2.000 10000.000 0.000 0.297
73 219.00 1200.01 169 357 2.000 10000.000 0.000 0.297
74 222.00 1200.01 207 355 2.000 10000.000 0.000 0.297
75 225.00 1200.01 201 324 2.000 10000.000 0.000 0.297
76 228.00 1200.01 197 388 2.000 10000.000 0.000 0.297
77 231.00 1200.01 197 429 2.000 10000.000 0.000 0.297
78 234.00 1200.01 229 520 2.000 10000.000 0.000 0.297
79 237.00 1200.01 233 582 2.000 10000.000 0.000 0.297
80 240.00 1200.01 227 608 2.000 10000.000 0.000 0.297
81 243.00 1200.01 255 634 2.000 10000.000 0.000 0.297
82 246.00 1200.01 268 743 2.000 10000.000 0.000 0.297
83 249.00 1200.01 251 747 2.000 10000.000 0.000 0.297
84 252.00 1200.01 253 777 2.000 10000.000 0.000 0.297
85 255.00 1200.01 267 770 2.000 10000.000 0.000 0.297
86 258.00 1200.01 266 836 2.000 10000.000 0.000 0.297
87 261.00 1200.01 275 824 2.000 10000.000 0.000 0.297
88 264.00 1200.01 316 863 2.000 10000.000 0.000 0.297
89 267.00 1200.01 324 813 2.000 10000.000 0.000 0.297
90 270.00 1200.01 278 833 2.000 10000.000 0.000 0.297
91 273.00 1200.01 313 838 2.000 10000.000 0.000 0.297
92 276.00 1200.01 290 832 2.000 10000.000 0.000 0.297
93 279.00 1200.01 282 808 2.000 10000.000 0.000 0.297
94 282.00 1200.01 288 821 2.000 10000.000 0.000 0.297
95 285.00 1200.01 287 811 2.000 10000.000 0.000 0.297
96 288.00 1200.01 263 721 2.000 10000.000 0.000 0.297
97 291.00 1200.01 250 704 2.000 10000.000 0.000 0.297
98 294.00 1200.01 268 636 2.000 10000.000 0.000 0.297
99 297.00 1200.01 217 566 2.000 10000.000 0.000 0.297
100 300.00 1200.01 183 429 2.000 10000.000 0.000 0.297
