# BinNR microsec tot-time (s)  O-Beam AUX Ampl(V) f(Hz) phase(deg) chi(pos)
0 0.00 5.58 0 0 1.100 10000.000 0.000 -1.516
1 3.00 5.58 0 0 1.100 10000.000 0.000 -1.516
2 6.00 5.58 0 1 1.100 10000.000 0.000 -1.516
3 9.00 5.58 0 0 1.100 10000.000 0.000 -1.516
4 12.00 5.58 0 1 1.100 10000.000 0.000 -1.516
5 15.00 5.58 0 0 1.100 10000.000 0.000 -1.516
6 18.00 5.58 1 1 1.100 10000.000 0.000 -1.516
7 21.00 5.58 1 1 1.100 10000.000 0.000 -1.516
8 24.00 5.58 0 1 1.100 10000.000 0.000 -1.516
9 27.00 5.58 0 1 1.100 10000.000 0.000 -1.516
10 30.00 5.58 0 1 1.100 10000.000 0.000 -1.516
11 33.00 5.58 0 0 1.100 10000.000 0.000 -1.516
12 36.00 5.58 1 1 1.100 10000.000 0.000 -1.516
13 39.00 5.58 0 0 1.100 10000.000 0.000 -1.516
14 42.00 5.58 0 1 1.100 10000.000 0.000 -1.516
15 45.00 5.58 0 0 1.100 10000.000 0.000 -1.516
16 48.00 5.58 0 0 1.100 10000.000 0.000 -1.516
17 51.00 5.58 1 1 1.100 10000.000 0.000 -1.516
18 54.00 5.58 0 2 1.100 10000.000 0.000 -1.516
19 57.00 5.58 0 2 1.100 10000.000 0.000 -1.516
20 60.00 5.58 0 1 1.100 10000.000 0.000 -1.516
21 63.00 5.58 1 0 1.100 10000.000 0.000 -1.516
22 66.00 5.58 1 1 1.100 10000.000 0.000 -1.516
23 69.00 5.58 0 1 1.100 10000.000 0.000 -1.516
24 72.00 5.58 0 1 1.100 10000.000 0.000 -1.516
25 75.00 5.58 0 0 1.100 10000.000 0.000 -1.516
26 78.00 5.58 2 2 1.100 10000.000 0.000 -1.516
27 81.00 5.58 0 1 1.100 10000.000 0.000 -1.516
28 84.00 5.58 0 0 1.100 10000.000 0.000 -1.516
29 87.00 5.58 0 0 1.100 10000.000 0.000 -1.516
30 90.00 5.58 0 0 1.100 10000.000 0.000 -1.516
31 93.00 5.58 0 0 1.100 10000.000 0.000 -1.516
32 96.00 5.58 0 0 1.100 10000.000 0.000 -1.516
33 99.00 5.58 0 2 1.100 10000.000 0.000 -1.516
34 102.00 5.58 1 2 1.100 10000.000 0.000 -1.516
35 105.00 5.58 0 1 1.100 10000.000 0.000 -1.516
36 108.00 5.58 1 0 1.100 10000.000 0.000 -1.516
37 111.00 5.58 0 2 1.100 10000.000 0.000 -1.516
38 114.00 5.58 0 1 1.100 10000.000 0.000 -1.516
39 117.00 5.58 1 0 1.100 10000.000 0.000 -1.516
40 120.00 5.58 0 0 1.100 10000.000 0.000 -1.516
41 123.00 5.58 0 0 1.100 10000.000 0.000 -1.516
42 126.00 5.58 0 0 1.100 10000.000 0.000 -1.516
43 129.00 5.58 1 0 1.100 10000.000 0.000 -1.516
44 132.00 5.58 1 0 1.100 10000.000 0.000 -1.516
45 135.00 5.58 0 1 1.100 10000.000 0.000 -1.516
46 138.00 5.58 0 4 1.100 10000.000 0.000 -1.516
47 141.00 5.58 0 0 1.100 10000.000 0.000 -1.516
48 144.00 5.58 1 1 1.100 10000.000 0.000 -1.516
49 147.00 5.58 0 1 1.100 10000.000 0.000 -1.516
50 150.00 5.58 0 0 1.100 10000.000 0.000 -1.516
51 153.00 5.58 0 0 1.100 10000.000 0.000 -1.516
52 156.00 5.58 0 1 1.100 10000.000 0.000 -1.516
53 159.00 5.58 0 4 1.100 10000.000 0.000 -1.516
54 162.00 5.58 0 3 1.100 10000.000 0.000 -1.516
55 165.00 5.58 0 0 1.100 10000.000 0.000 -1.516
56 168.00 5.58 1 0 1.100 10000.000 0.000 -1.516
57 171.00 5.58 0 0 1.100 10000.000 0.000 -1.516
58 174.00 5.58 0 1 1.100 10000.000 0.000 -1.516
59 177.00 5.58 1 1 1.100 10000.000 0.000 -1.516
60 180.00 5.58 0 1 1.100 10000.000 0.000 -1.516
61 183.00 5.58 0 3 1.100 10000.000 0.000 -1.516
62 186.00 5.58 2 0 1.100 10000.000 0.000 -1.516
63 189.00 5.58 0 0 1.100 10000.000 0.000 -1.516
64 192.00 5.58 0 0 1.100 10000.000 0.000 -1.516
65 195.00 5.58 0 2 1.100 10000.000 0.000 -1.516
66 198.00 5.58 1 1 1.100 10000.000 0.000 -1.516
67 201.00 5.58 1 1 1.100 10000.000 0.000 -1.516
68 204.00 5.58 0 1 1.100 10000.000 0.000 -1.516
69 207.00 5.58 0 0 1.100 10000.000 0.000 -1.516
70 210.00 5.58 0 1 1.100 10000.000 0.000 -1.516
71 213.00 5.58 0 2 1.100 10000.000 0.000 -1.516
72 216.00 5.58 1 1 1.100 10000.000 0.000 -1.516
73 219.00 5.58 2 0 1.100 10000.000 0.000 -1.516
74 222.00 5.58 0 0 1.100 10000.000 0.000 -1.516
75 225.00 5.58 0 0 1.100 10000.000 0.000 -1.516
76 228.00 5.58 2 1 1.100 10000.000 0.000 -1.516
77 231.00 5.58 2 0 1.100 10000.000 0.000 -1.516
78 234.00 5.58 0 0 1.100 10000.000 0.000 -1.516
79 237.00 5.58 0 0 1.100 10000.000 0.000 -1.516
80 240.00 5.58 0 0 1.100 10000.000 0.000 -1.516
81 243.00 5.58 0 1 1.100 10000.000 0.000 -1.516
82 246.00 5.58 0 2 1.100 10000.000 0.000 -1.516
83 249.00 5.58 0 0 1.100 10000.000 0.000 -1.516
84 252.00 5.58 0 0 1.100 10000.000 0.000 -1.516
85 255.00 5.58 0 0 1.100 10000.000 0.000 -1.516
86 258.00 5.58 0 0 1.100 10000.000 0.000 -1.516
87 261.00 5.58 0 0 1.100 10000.000 0.000 -1.516
88 264.00 5.58 0 4 1.100 10000.000 0.000 -1.516
89 267.00 5.58 0 0 1.100 10000.000 0.000 -1.516
90 270.00 5.58 0 0 1.100 10000.000 0.000 -1.516
91 273.00 5.58 1 0 1.100 10000.000 0.000 -1.516
92 276.00 5.58 1 2 1.100 10000.000 0.000 -1.516
93 279.00 5.58 0 0 1.100 10000.000 0.000 -1.516
94 282.00 5.58 0 1 1.100 10000.000 0.000 -1.516
95 285.00 5.58 0 0 1.100 10000.000 0.000 -1.516
96 288.00 5.58 0 1 1.100 10000.000 0.000 -1.516
97 291.00 5.58 0 1 1.100 10000.000 0.000 -1.516
98 294.00 5.58 2 2 1.100 10000.000 0.000 -1.516
99 297.00 5.58 0 0 1.100 10000.000 0.000 -1.516
100 300.00 5.58 1 0 1.100 10000.000 0.000 -1.516
101 303.00 5.58 0 0 1.100 10000.000 0.000 -1.516
102 306.00 5.58 0 1 1.100 10000.000 0.000 -1.516
103 309.00 5.58 0 0 1.100 10000.000 0.000 -1.516
104 312.00 5.58 0 1 1.100 10000.000 0.000 -1.516
105 315.00 5.58 2 1 1.100 10000.000 0.000 -1.516
106 318.00 5.58 2 1 1.100 10000.000 0.000 -1.516
107 321.00 5.58 0 0 1.100 10000.000 0.000 -1.516
108 324.00 5.58 1 0 1.100 10000.000 0.000 -1.516
109 327.00 5.58 0 1 1.100 10000.000 0.000 -1.516
110 330.00 5.58 0 0 1.100 10000.000 0.000 -1.516
111 333.00 5.58 0 1 1.100 10000.000 0.000 -1.516
112 336.00 5.58 0 1 1.100 10000.000 0.000 -1.516
113 339.00 5.58 0 0 1.100 10000.000 0.000 -1.516
114 342.00 5.58 0 1 1.100 10000.000 0.000 -1.516
115 345.00 5.58 1 1 1.100 10000.000 0.000 -1.516
116 348.00 5.58 0 1 1.100 10000.000 0.000 -1.516
117 351.00 5.58 1 1 1.100 10000.000 0.000 -1.516
118 354.00 5.58 1 1 1.100 10000.000 0.000 -1.516
119 357.00 5.58 2 2 1.100 10000.000 0.000 -1.516
120 360.00 5.58 1 1 1.100 10000.000 0.000 -1.516
121 363.00 5.58 2 0 1.100 10000.000 0.000 -1.516
122 366.00 5.58 0 0 1.100 10000.000 0.000 -1.516
123 369.00 5.58 0 0 1.100 10000.000 0.000 -1.516
124 372.00 5.58 0 0 1.100 10000.000 0.000 -1.516
125 375.00 5.58 0 0 1.100 10000.000 0.000 -1.516
126 378.00 5.58 0 0 1.100 10000.000 0.000 -1.516
127 381.00 5.58 1 1 1.100 10000.000 0.000 -1.516
128 384.00 5.58 0 1 1.100 10000.000 0.000 -1.516
129 387.00 5.58 0 3 1.100 10000.000 0.000 -1.516
130 390.00 5.58 1 0 1.100 10000.000 0.000 -1.516
131 393.00 5.58 1 2 1.100 10000.000 0.000 -1.516
132 396.00 5.58 1 0 1.100 10000.000 0.000 -1.516
133 399.00 5.58 0 0 1.100 10000.000 0.000 -1.516
134 402.00 5.58 0 0 1.100 10000.000 0.000 -1.516
