# BinNR microsec tot-time (s)  O-Beam AUX Ampl(V) f(Hz) phase(deg) chi(pos)
0 0.00 0.03 0 0 1.100 10000.000 0.000 -1.318
1 3.00 0.03 0 0 1.100 10000.000 0.000 -1.318
2 6.00 0.03 0 0 1.100 10000.000 0.000 -1.318
3 9.00 0.03 0 0 1.100 10000.000 0.000 -1.318
4 12.00 0.03 0 0 1.100 10000.000 0.000 -1.318
5 15.00 0.03 0 0 1.100 10000.000 0.000 -1.318
6 18.00 0.03 0 0 1.100 10000.000 0.000 -1.318
7 21.00 0.03 0 0 1.100 10000.000 0.000 -1.318
8 24.00 0.03 0 0 1.100 10000.000 0.000 -1.318
9 27.00 0.03 0 0 1.100 10000.000 0.000 -1.318
10 30.00 0.03 0 0 1.100 10000.000 0.000 -1.318
11 33.00 0.03 0 0 1.100 10000.000 0.000 -1.318
12 36.00 0.03 0 0 1.100 10000.000 0.000 -1.318
13 39.00 0.03 0 0 1.100 10000.000 0.000 -1.318
14 42.00 0.03 0 0 1.100 10000.000 0.000 -1.318
15 45.00 0.03 0 0 1.100 10000.000 0.000 -1.318
16 48.00 0.03 0 0 1.100 10000.000 0.000 -1.318
17 51.00 0.03 0 0 1.100 10000.000 0.000 -1.318
18 54.00 0.03 0 0 1.100 10000.000 0.000 -1.318
19 57.00 0.03 0 0 1.100 10000.000 0.000 -1.318
20 60.00 0.03 0 0 1.100 10000.000 0.000 -1.318
21 63.00 0.03 0 0 1.100 10000.000 0.000 -1.318
22 66.00 0.03 0 0 1.100 10000.000 0.000 -1.318
23 69.00 0.03 0 0 1.100 10000.000 0.000 -1.318
24 72.00 0.03 0 0 1.100 10000.000 0.000 -1.318
25 75.00 0.03 0 0 1.100 10000.000 0.000 -1.318
26 78.00 0.03 0 0 1.100 10000.000 0.000 -1.318
27 81.00 0.03 0 0 1.100 10000.000 0.000 -1.318
28 84.00 0.03 0 0 1.100 10000.000 0.000 -1.318
29 87.00 0.03 0 0 1.100 10000.000 0.000 -1.318
30 90.00 0.03 0 0 1.100 10000.000 0.000 -1.318
31 93.00 0.03 0 0 1.100 10000.000 0.000 -1.318
32 96.00 0.03 0 0 1.100 10000.000 0.000 -1.318
33 99.00 0.03 0 0 1.100 10000.000 0.000 -1.318
34 102.00 0.03 0 0 1.100 10000.000 0.000 -1.318
35 105.00 0.03 0 0 1.100 10000.000 0.000 -1.318
36 108.00 0.03 0 0 1.100 10000.000 0.000 -1.318
37 111.00 0.03 0 0 1.100 10000.000 0.000 -1.318
38 114.00 0.03 0 0 1.100 10000.000 0.000 -1.318
39 117.00 0.03 0 0 1.100 10000.000 0.000 -1.318
40 120.00 0.03 0 0 1.100 10000.000 0.000 -1.318
41 123.00 0.03 0 0 1.100 10000.000 0.000 -1.318
42 126.00 0.03 0 0 1.100 10000.000 0.000 -1.318
43 129.00 0.03 0 0 1.100 10000.000 0.000 -1.318
44 132.00 0.03 0 0 1.100 10000.000 0.000 -1.318
45 135.00 0.03 0 0 1.100 10000.000 0.000 -1.318
46 138.00 0.03 0 0 1.100 10000.000 0.000 -1.318
47 141.00 0.03 0 0 1.100 10000.000 0.000 -1.318
48 144.00 0.03 0 0 1.100 10000.000 0.000 -1.318
49 147.00 0.03 0 0 1.100 10000.000 0.000 -1.318
50 150.00 0.03 0 0 1.100 10000.000 0.000 -1.318
51 153.00 0.03 0 0 1.100 10000.000 0.000 -1.318
52 156.00 0.03 0 0 1.100 10000.000 0.000 -1.318
53 159.00 0.03 0 0 1.100 10000.000 0.000 -1.318
54 162.00 0.03 0 0 1.100 10000.000 0.000 -1.318
55 165.00 0.03 0 0 1.100 10000.000 0.000 -1.318
56 168.00 0.03 0 0 1.100 10000.000 0.000 -1.318
57 171.00 0.03 0 0 1.100 10000.000 0.000 -1.318
58 174.00 0.03 0 0 1.100 10000.000 0.000 -1.318
59 177.00 0.03 0 0 1.100 10000.000 0.000 -1.318
60 180.00 0.03 0 0 1.100 10000.000 0.000 -1.318
61 183.00 0.03 0 0 1.100 10000.000 0.000 -1.318
62 186.00 0.03 0 0 1.100 10000.000 0.000 -1.318
63 189.00 0.03 0 0 1.100 10000.000 0.000 -1.318
64 192.00 0.03 0 0 1.100 10000.000 0.000 -1.318
65 195.00 0.03 0 0 1.100 10000.000 0.000 -1.318
66 198.00 0.03 0 0 1.100 10000.000 0.000 -1.318
67 201.00 0.03 0 0 1.100 10000.000 0.000 -1.318
68 204.00 0.03 0 0 1.100 10000.000 0.000 -1.318
69 207.00 0.03 0 0 1.100 10000.000 0.000 -1.318
70 210.00 0.03 0 0 1.100 10000.000 0.000 -1.318
71 213.00 0.03 0 0 1.100 10000.000 0.000 -1.318
72 216.00 0.03 0 0 1.100 10000.000 0.000 -1.318
73 219.00 0.03 0 0 1.100 10000.000 0.000 -1.318
74 222.00 0.03 0 0 1.100 10000.000 0.000 -1.318
75 225.00 0.03 0 0 1.100 10000.000 0.000 -1.318
76 228.00 0.03 0 0 1.100 10000.000 0.000 -1.318
77 231.00 0.03 0 0 1.100 10000.000 0.000 -1.318
78 234.00 0.03 0 0 1.100 10000.000 0.000 -1.318
79 237.00 0.03 0 0 1.100 10000.000 0.000 -1.318
80 240.00 0.03 0 0 1.100 10000.000 0.000 -1.318
81 243.00 0.03 0 0 1.100 10000.000 0.000 -1.318
82 246.00 0.03 0 0 1.100 10000.000 0.000 -1.318
83 249.00 0.03 0 0 1.100 10000.000 0.000 -1.318
84 252.00 0.03 0 0 1.100 10000.000 0.000 -1.318
85 255.00 0.03 0 0 1.100 10000.000 0.000 -1.318
86 258.00 0.03 0 0 1.100 10000.000 0.000 -1.318
87 261.00 0.03 0 0 1.100 10000.000 0.000 -1.318
88 264.00 0.03 0 0 1.100 10000.000 0.000 -1.318
89 267.00 0.03 0 0 1.100 10000.000 0.000 -1.318
90 270.00 0.03 0 0 1.100 10000.000 0.000 -1.318
91 273.00 0.03 0 0 1.100 10000.000 0.000 -1.318
92 276.00 0.03 0 0 1.100 10000.000 0.000 -1.318
93 279.00 0.03 0 0 1.100 10000.000 0.000 -1.318
94 282.00 0.03 0 0 1.100 10000.000 0.000 -1.318
95 285.00 0.03 0 0 1.100 10000.000 0.000 -1.318
96 288.00 0.03 0 0 1.100 10000.000 0.000 -1.318
97 291.00 0.03 0 0 1.100 10000.000 0.000 -1.318
98 294.00 0.03 0 0 1.100 10000.000 0.000 -1.318
99 297.00 0.03 0 0 1.100 10000.000 0.000 -1.318
100 300.00 0.03 0 0 1.100 10000.000 0.000 -1.318
101 303.00 0.03 0 0 1.100 10000.000 0.000 -1.318
102 306.00 0.03 0 0 1.100 10000.000 0.000 -1.318
103 309.00 0.03 0 0 1.100 10000.000 0.000 -1.318
104 312.00 0.03 0 0 1.100 10000.000 0.000 -1.318
105 315.00 0.03 0 0 1.100 10000.000 0.000 -1.318
106 318.00 0.03 0 0 1.100 10000.000 0.000 -1.318
107 321.00 0.03 0 0 1.100 10000.000 0.000 -1.318
108 324.00 0.03 0 0 1.100 10000.000 0.000 -1.318
109 327.00 0.03 0 0 1.100 10000.000 0.000 -1.318
110 330.00 0.03 0 0 1.100 10000.000 0.000 -1.318
111 333.00 0.03 0 0 1.100 10000.000 0.000 -1.318
112 336.00 0.03 0 0 1.100 10000.000 0.000 -1.318
113 339.00 0.03 0 0 1.100 10000.000 0.000 -1.318
114 342.00 0.03 0 0 1.100 10000.000 0.000 -1.318
115 345.00 0.03 0 0 1.100 10000.000 0.000 -1.318
116 348.00 0.03 0 0 1.100 10000.000 0.000 -1.318
117 351.00 0.03 0 0 1.100 10000.000 0.000 -1.318
118 354.00 0.03 0 0 1.100 10000.000 0.000 -1.318
119 357.00 0.03 0 0 1.100 10000.000 0.000 -1.318
120 360.00 0.03 0 0 1.100 10000.000 0.000 -1.318
121 363.00 0.03 0 0 1.100 10000.000 0.000 -1.318
122 366.00 0.03 0 0 1.100 10000.000 0.000 -1.318
123 369.00 0.03 0 0 1.100 10000.000 0.000 -1.318
124 372.00 0.03 0 0 1.100 10000.000 0.000 -1.318
125 375.00 0.03 0 0 1.100 10000.000 0.000 -1.318
126 378.00 0.03 0 0 1.100 10000.000 0.000 -1.318
127 381.00 0.03 0 0 1.100 10000.000 0.000 -1.318
128 384.00 0.03 0 0 1.100 10000.000 0.000 -1.318
129 387.00 0.03 0 0 1.100 10000.000 0.000 -1.318
130 390.00 0.03 0 0 1.100 10000.000 0.000 -1.318
131 393.00 0.03 0 0 1.100 10000.000 0.000 -1.318
132 396.00 0.03 0 0 1.100 10000.000 0.000 -1.318
133 399.00 0.03 0 0 1.100 10000.000 0.000 -1.318
134 402.00 0.03 0 0 1.100 10000.000 0.000 -1.318
