# BinNR microsec tot-time (s)  O-Beam AUX Ampl(V) f(Hz) phase(deg) chi(pos)
0 0.00 1500.00 85 131 0.510 10000.000 0.000 0.319
1 3.00 1500.00 161 230 0.510 10000.000 0.000 0.319
2 6.00 1500.00 192 219 0.510 10000.000 0.000 0.319
3 9.00 1500.00 184 222 0.510 10000.000 0.000 0.319
4 12.00 1500.00 180 194 0.510 10000.000 0.000 0.319
5 15.00 1500.00 173 220 0.510 10000.000 0.000 0.319
6 18.00 1500.00 173 187 0.510 10000.000 0.000 0.319
7 21.00 1500.00 151 176 0.510 10000.000 0.000 0.319
8 24.00 1500.00 183 169 0.510 10000.000 0.000 0.319
9 27.00 1500.00 151 158 0.510 10000.000 0.000 0.319
10 30.00 1500.00 179 177 0.510 10000.000 0.000 0.319
11 33.00 1500.00 167 151 0.510 10000.000 0.000 0.319
12 36.00 1500.00 140 156 0.510 10000.000 0.000 0.319
13 39.00 1500.00 159 153 0.510 10000.000 0.000 0.319
14 42.00 1500.00 151 169 0.510 10000.000 0.000 0.319
15 45.00 1500.00 170 176 0.510 10000.000 0.000 0.319
16 48.00 1500.00 156 140 0.510 10000.000 0.000 0.319
17 51.00 1500.00 144 166 0.510 10000.000 0.000 0.319
18 54.00 1500.00 138 184 0.510 10000.000 0.000 0.319
19 57.00 1500.00 151 177 0.510 10000.000 0.000 0.319
20 60.00 1500.00 148 178 0.510 10000.000 0.000 0.319
21 63.00 1500.00 164 164 0.510 10000.000 0.000 0.319
22 66.00 1500.00 156 175 0.510 10000.000 0.000 0.319
23 69.00 1500.00 163 205 0.510 10000.000 0.000 0.319
24 72.00 1500.00 178 194 0.510 10000.000 0.000 0.319
25 75.00 1500.00 170 210 0.510 10000.000 0.000 0.319
26 78.00 1500.00 180 215 0.510 10000.000 0.000 0.319
27 81.00 1500.00 180 232 0.510 10000.000 0.000 0.319
28 84.00 1500.00 190 259 0.510 10000.000 0.000 0.319
29 87.00 1500.00 175 252 0.510 10000.000 0.000 0.319
30 90.00 1500.00 182 259 0.510 10000.000 0.000 0.319
31 93.00 1500.00 171 244 0.510 10000.000 0.000 0.319
32 96.00 1500.00 201 243 0.510 10000.000 0.000 0.319
33 99.00 1500.00 164 237 0.510 10000.000 0.000 0.319
34 102.00 1500.00 184 298 0.510 10000.000 0.000 0.319
35 105.00 1500.00 143 255 0.510 10000.000 0.000 0.319
36 108.00 1500.00 186 242 0.510 10000.000 0.000 0.319
37 111.00 1500.00 174 211 0.510 10000.000 0.000 0.319
38 114.00 1500.00 168 224 0.510 10000.000 0.000 0.319
39 117.00 1500.00 160 235 0.510 10000.000 0.000 0.319
40 120.00 1500.00 185 206 0.510 10000.000 0.000 0.319
41 123.00 1500.00 162 183 0.510 10000.000 0.000 0.319
42 126.00 1500.00 136 189 0.510 10000.000 0.000 0.319
43 129.00 1500.00 168 168 0.510 10000.000 0.000 0.319
44 132.00 1500.00 133 207 0.510 10000.000 0.000 0.319
45 135.00 1500.00 124 158 0.510 10000.000 0.000 0.319
46 138.00 1500.00 124 147 0.510 10000.000 0.000 0.319
47 141.00 1500.00 133 154 0.510 10000.000 0.000 0.319
48 144.00 1500.00 142 158 0.510 10000.000 0.000 0.319
49 147.00 1500.00 129 155 0.510 10000.000 0.000 0.319
50 150.00 1500.00 156 149 0.510 10000.000 0.000 0.319
51 153.00 1500.00 171 163 0.510 10000.000 0.000 0.319
52 156.00 1500.00 150 180 0.510 10000.000 0.000 0.319
53 159.00 1500.00 142 170 0.510 10000.000 0.000 0.319
54 162.00 1500.00 139 167 0.510 10000.000 0.000 0.319
55 165.00 1500.00 176 185 0.510 10000.000 0.000 0.319
56 168.00 1500.00 160 188 0.510 10000.000 0.000 0.319
57 171.00 1500.00 161 199 0.510 10000.000 0.000 0.319
58 174.00 1500.00 134 214 0.510 10000.000 0.000 0.319
59 177.00 1500.00 160 214 0.510 10000.000 0.000 0.319
60 180.00 1500.00 186 208 0.510 10000.000 0.000 0.319
61 183.00 1500.00 188 227 0.510 10000.000 0.000 0.319
62 186.00 1500.00 207 252 0.510 10000.000 0.000 0.319
63 189.00 1500.00 162 281 0.510 10000.000 0.000 0.319
64 192.00 1500.00 184 259 0.510 10000.000 0.000 0.319
65 195.00 1500.00 189 245 0.510 10000.000 0.000 0.319
66 198.00 1500.00 182 229 0.510 10000.000 0.000 0.319
67 201.00 1500.00 144 268 0.510 10000.000 0.000 0.319
68 204.00 1500.00 188 278 0.510 10000.000 0.000 0.319
69 207.00 1500.00 190 231 0.510 10000.000 0.000 0.319
70 210.00 1500.00 160 225 0.510 10000.000 0.000 0.319
71 213.00 1500.00 175 215 0.510 10000.000 0.000 0.319
72 216.00 1500.00 163 211 0.510 10000.000 0.000 0.319
73 219.00 1500.00 167 210 0.510 10000.000 0.000 0.319
74 222.00 1500.00 175 211 0.510 10000.000 0.000 0.319
75 225.00 1500.00 146 197 0.510 10000.000 0.000 0.319
76 228.00 1500.00 145 173 0.510 10000.000 0.000 0.319
77 231.00 1500.00 146 189 0.510 10000.000 0.000 0.319
78 234.00 1500.00 158 167 0.510 10000.000 0.000 0.319
79 237.00 1500.00 124 169 0.510 10000.000 0.000 0.319
80 240.00 1500.00 138 137 0.510 10000.000 0.000 0.319
81 243.00 1500.00 144 172 0.510 10000.000 0.000 0.319
82 246.00 1500.00 153 158 0.510 10000.000 0.000 0.319
83 249.00 1500.00 131 171 0.510 10000.000 0.000 0.319
84 252.00 1500.00 171 162 0.510 10000.000 0.000 0.319
85 255.00 1500.00 129 161 0.510 10000.000 0.000 0.319
86 258.00 1500.00 154 184 0.510 10000.000 0.000 0.319
87 261.00 1500.00 146 163 0.510 10000.000 0.000 0.319
88 264.00 1500.00 142 181 0.510 10000.000 0.000 0.319
89 267.00 1500.00 142 195 0.510 10000.000 0.000 0.319
90 270.00 1500.00 170 189 0.510 10000.000 0.000 0.319
91 273.00 1500.00 170 186 0.510 10000.000 0.000 0.319
92 276.00 1500.00 186 243 0.510 10000.000 0.000 0.319
93 279.00 1500.00 174 212 0.510 10000.000 0.000 0.319
94 282.00 1500.00 198 230 0.510 10000.000 0.000 0.319
95 285.00 1500.00 200 242 0.510 10000.000 0.000 0.319
96 288.00 1500.00 187 238 0.510 10000.000 0.000 0.319
97 291.00 1500.00 181 255 0.510 10000.000 0.000 0.319
98 294.00 1500.00 170 224 0.510 10000.000 0.000 0.319
99 297.00 1500.00 193 268 0.510 10000.000 0.000 0.319
100 300.00 1500.00 167 254 0.510 10000.000 0.000 0.319
101 303.00 1500.00 200 248 0.510 10000.000 0.000 0.319
102 306.00 1500.00 171 225 0.510 10000.000 0.000 0.319
103 309.00 1500.00 169 227 0.510 10000.000 0.000 0.319
104 312.00 1500.00 176 222 0.510 10000.000 0.000 0.319
105 315.00 1500.00 178 194 0.510 10000.000 0.000 0.319
106 318.00 1500.00 160 211 0.510 10000.000 0.000 0.319
107 321.00 1500.00 163 184 0.510 10000.000 0.000 0.319
108 324.00 1500.00 170 207 0.510 10000.000 0.000 0.319
109 327.00 1500.00 168 181 0.510 10000.000 0.000 0.319
110 330.00 1500.00 158 204 0.510 10000.000 0.000 0.319
111 333.00 1500.00 126 162 0.510 10000.000 0.000 0.319
112 336.00 1500.00 136 169 0.510 10000.000 0.000 0.319
113 339.00 1500.00 148 167 0.510 10000.000 0.000 0.319
114 342.00 1500.00 145 163 0.510 10000.000 0.000 0.319
115 345.00 1500.00 153 131 0.510 10000.000 0.000 0.319
116 348.00 1500.00 154 151 0.510 10000.000 0.000 0.319
117 351.00 1500.00 141 160 0.510 10000.000 0.000 0.319
118 354.00 1500.00 140 146 0.510 10000.000 0.000 0.319
119 357.00 1500.00 163 167 0.510 10000.000 0.000 0.319
120 360.00 1500.00 164 174 0.510 10000.000 0.000 0.319
121 363.00 1500.00 152 152 0.510 10000.000 0.000 0.319
122 366.00 1500.00 126 175 0.510 10000.000 0.000 0.319
123 369.00 1500.00 135 199 0.510 10000.000 0.000 0.319
124 372.00 1500.00 176 188 0.510 10000.000 0.000 0.319
125 375.00 1500.00 143 203 0.510 10000.000 0.000 0.319
126 378.00 1500.00 190 193 0.510 10000.000 0.000 0.319
127 381.00 1500.00 167 215 0.510 10000.000 0.000 0.319
128 384.00 1500.00 191 245 0.510 10000.000 0.000 0.319
129 387.00 1500.00 162 212 0.510 10000.000 0.000 0.319
130 390.00 1500.00 188 251 0.510 10000.000 0.000 0.319
131 393.00 1500.00 170 270 0.510 10000.000 0.000 0.319
132 396.00 1500.00 185 280 0.510 10000.000 0.000 0.319
133 399.00 1500.00 176 246 0.510 10000.000 0.000 0.319
134 402.00 1500.00 196 259 0.510 10000.000 0.000 0.319
